First column is AoA (deg) and first row is Reynolds Number
0.000000	200000.000000	300000.000000	400000.000000	500000.000000	600000.000000	700000.000000	800000.000000	900000.000000	1000000.000000	1100000.000000	1200000.000000	1300000.000000	1400000.000000	1500000.000000	1600000.000000	1700000.000000	1800000.000000	1900000.000000	2000000.000000	2100000.000000	2200000.000000	2300000.000000	2400000.000000	2500000.000000	2600000.000000	2700000.000000	2800000.000000	2900000.000000	3000000.000000	3100000.000000	3200000.000000	3300000.000000	3400000.000000	3500000.000000	3600000.000000	3700000.000000	3800000.000000	3900000.000000	4000000.000000
-180.000000	0.006000	0.006000	0.006000	0.006000	0.006000	0.006000	0.006000	0.006000	0.006000	0.006000	0.006000	0.006000	0.006000	0.006000	0.006000	0.006000	0.006000	0.006000	0.006000	0.006000	0.006000	0.006000	0.006000	0.006000	0.006000	0.006000	0.006000	0.006000	0.006000	0.006000	0.006000	0.006000	0.006000	0.006000	0.006000	0.006000	0.006000	0.006000	0.006000
-179.000000	0.006500	0.006500	0.006500	0.006500	0.006500	0.006500	0.006500	0.006500	0.006500	0.006500	0.006500	0.006500	0.006500	0.006500	0.006500	0.006500	0.006500	0.006500	0.006500	0.006500	0.006500	0.006500	0.006500	0.006500	0.006500	0.006500	0.006500	0.006500	0.006500	0.006500	0.006500	0.006500	0.006500	0.006500	0.006500	0.006500	0.006500	0.006500	0.006500
-178.000000	0.008000	0.008000	0.008000	0.008000	0.008000	0.008000	0.008000	0.008000	0.008000	0.008000	0.008000	0.008000	0.008000	0.008000	0.008000	0.008000	0.008000	0.008000	0.008000	0.008000	0.008000	0.008000	0.008000	0.008000	0.008000	0.008000	0.008000	0.008000	0.008000	0.008000	0.008000	0.008000	0.008000	0.008000	0.008000	0.008000	0.008000	0.008000	0.008000
-177.000000	0.010600	0.010600	0.010600	0.010600	0.010600	0.010600	0.010500	0.010600	0.010600	0.010600	0.010600	0.010600	0.010600	0.010600	0.010600	0.010600	0.010600	0.010600	0.010600	0.010600	0.010600	0.010600	0.010600	0.010600	0.010600	0.010600	0.010600	0.010600	0.010600	0.010600	0.010600	0.010600	0.010600	0.010600	0.010600	0.010600	0.010600	0.010600	0.010600
-176.000000	0.014100	0.014100	0.014100	0.014100	0.014100	0.014100	0.014000	0.014100	0.014100	0.014100	0.014100	0.014100	0.014100	0.014100	0.014100	0.014100	0.014100	0.014100	0.014100	0.014100	0.014100	0.014100	0.014100	0.014100	0.014100	0.014100	0.014100	0.014100	0.014100	0.014100	0.014100	0.014100	0.014100	0.014100	0.014100	0.014100	0.014100	0.014100	0.014100
-175.000000	0.018700	0.018700	0.018700	0.018700	0.018700	0.018700	0.018400	0.018700	0.018700	0.018700	0.018700	0.018700	0.018700	0.018700	0.018700	0.018700	0.018700	0.018700	0.018700	0.018700	0.018700	0.018700	0.018700	0.018700	0.018700	0.018700	0.018700	0.018700	0.018700	0.018700	0.018700	0.018700	0.018700	0.018700	0.018700	0.018700	0.018700	0.018700	0.018700
-174.000000	0.024200	0.024200	0.024200	0.024200	0.024200	0.024200	0.023900	0.024200	0.024200	0.024200	0.024200	0.024200	0.024200	0.024200	0.024200	0.024200	0.024200	0.024200	0.024200	0.024200	0.024200	0.024200	0.024200	0.024200	0.024200	0.024200	0.024200	0.024200	0.024200	0.024200	0.024200	0.024200	0.024200	0.024200	0.024200	0.024200	0.024200	0.024200	0.024200
-173.000000	0.030800	0.030800	0.030800	0.030800	0.030800	0.030800	0.030300	0.030800	0.030800	0.030800	0.030800	0.030800	0.030800	0.030800	0.030800	0.030800	0.030800	0.030800	0.030800	0.030800	0.030800	0.030800	0.030800	0.030800	0.030800	0.030800	0.030800	0.030800	0.030800	0.030800	0.030800	0.030800	0.030800	0.030800	0.030800	0.030800	0.030800	0.030800	0.030800
-172.000000	0.038300	0.038300	0.038300	0.038300	0.038300	0.038300	0.037700	0.038300	0.038300	0.038300	0.038300	0.038300	0.038300	0.038300	0.038300	0.038300	0.038300	0.038300	0.038300	0.038300	0.038300	0.038300	0.038300	0.038300	0.038300	0.038300	0.038300	0.038300	0.038300	0.038300	0.038300	0.038300	0.038300	0.038300	0.038300	0.038300	0.038300	0.038300	0.038300
-171.000000	0.046800	0.046800	0.046800	0.046800	0.046800	0.046800	0.046000	0.046800	0.046800	0.046800	0.046800	0.046800	0.046800	0.046800	0.046800	0.046800	0.046800	0.046800	0.046800	0.046800	0.046800	0.046800	0.046800	0.046800	0.046800	0.046800	0.046800	0.046800	0.046800	0.046800	0.046800	0.046800	0.046800	0.046800	0.046800	0.046800	0.046800	0.046800	0.046800
-170.000000	0.056200	0.056200	0.056200	0.056200	0.056200	0.056200	0.055300	0.056200	0.056200	0.056200	0.056200	0.056200	0.056200	0.056200	0.056200	0.056200	0.056200	0.056200	0.056200	0.056200	0.056200	0.056200	0.056200	0.056200	0.056200	0.056200	0.056200	0.056200	0.056200	0.056200	0.056200	0.056200	0.056200	0.056200	0.056200	0.056200	0.056200	0.056200	0.056200
-169.000000	0.066600	0.066600	0.066600	0.066600	0.066600	0.066600	0.065500	0.066600	0.066600	0.066600	0.066600	0.066600	0.066600	0.066600	0.066600	0.066600	0.066600	0.066600	0.066600	0.066600	0.066600	0.066600	0.066600	0.066600	0.066600	0.066600	0.066600	0.066600	0.066600	0.066600	0.066600	0.066600	0.066600	0.066600	0.066600	0.066600	0.066600	0.066600	0.066600
-168.000000	0.078000	0.078000	0.078000	0.078000	0.078000	0.078000	0.076700	0.078000	0.078000	0.078000	0.078000	0.078000	0.078000	0.078000	0.078000	0.078000	0.078000	0.078000	0.078000	0.078000	0.078000	0.078000	0.078000	0.078000	0.078000	0.078000	0.078000	0.078000	0.078000	0.078000	0.078000	0.078000	0.078000	0.078000	0.078000	0.078000	0.078000	0.078000	0.078000
-167.000000	0.090300	0.090300	0.090300	0.090300	0.090300	0.090300	0.088700	0.090300	0.090300	0.090300	0.090300	0.090300	0.090300	0.090300	0.090300	0.090300	0.090300	0.090300	0.090300	0.090300	0.090300	0.090300	0.090300	0.090300	0.090300	0.090300	0.090300	0.090300	0.090300	0.090300	0.090300	0.090300	0.090300	0.090300	0.090300	0.090300	0.090300	0.090300	0.090300
-166.000000	0.103400	0.103400	0.103400	0.103400	0.103400	0.103400	0.101700	0.103400	0.103400	0.103400	0.103400	0.103400	0.103400	0.103400	0.103400	0.103400	0.103400	0.103400	0.103400	0.103400	0.103400	0.103400	0.103400	0.103400	0.103400	0.103400	0.103400	0.103400	0.103400	0.103400	0.103400	0.103400	0.103400	0.103400	0.103400	0.103400	0.103400	0.103400	0.103400
-165.000000	0.117500	0.117500	0.117500	0.117500	0.117500	0.117500	0.115500	0.117500	0.117500	0.117500	0.117500	0.117500	0.117500	0.117500	0.117500	0.117500	0.117500	0.117500	0.117500	0.117500	0.117500	0.117500	0.117500	0.117500	0.117500	0.117500	0.117500	0.117500	0.117500	0.117500	0.117500	0.117500	0.117500	0.117500	0.117500	0.117500	0.117500	0.117500	0.117500
-164.000000	0.132400	0.132400	0.132400	0.132400	0.132400	0.132400	0.130200	0.132400	0.132400	0.132400	0.132400	0.132400	0.132400	0.132400	0.132400	0.132400	0.132400	0.132400	0.132400	0.132400	0.132400	0.132400	0.132400	0.132400	0.132400	0.132400	0.132400	0.132400	0.132400	0.132400	0.132400	0.132400	0.132400	0.132400	0.132400	0.132400	0.132400	0.132400	0.132400
-163.000000	0.148200	0.148200	0.148200	0.148200	0.148200	0.148200	0.145700	0.148200	0.148200	0.148200	0.148200	0.148200	0.148200	0.148200	0.148200	0.148200	0.148200	0.148200	0.148200	0.148200	0.148200	0.148200	0.148200	0.148200	0.148200	0.148200	0.148200	0.148200	0.148200	0.148200	0.148200	0.148200	0.148200	0.148200	0.148200	0.148200	0.148200	0.148200	0.148200
-162.000000	0.164900	0.164900	0.164900	0.164900	0.164900	0.164900	0.162000	0.164900	0.164900	0.164900	0.164900	0.164900	0.164900	0.164900	0.164900	0.164900	0.164900	0.164900	0.164900	0.164900	0.164900	0.164900	0.164900	0.164900	0.164900	0.164900	0.164900	0.164900	0.164900	0.164900	0.164900	0.164900	0.164900	0.164900	0.164900	0.164900	0.164900	0.164900	0.164900
-161.000000	0.182300	0.182300	0.182300	0.182300	0.182300	0.182300	0.179100	0.182300	0.182300	0.182300	0.182300	0.182300	0.182300	0.182300	0.182300	0.182300	0.182300	0.182300	0.182300	0.182300	0.182300	0.182300	0.182300	0.182300	0.182300	0.182300	0.182300	0.182300	0.182300	0.182300	0.182300	0.182300	0.182300	0.182300	0.182300	0.182300	0.182300	0.182300	0.182300
-160.000000	0.200500	0.200500	0.200500	0.200500	0.200500	0.200500	0.197000	0.200500	0.200500	0.200500	0.200500	0.200500	0.200500	0.200500	0.200500	0.200500	0.200500	0.200500	0.200500	0.200500	0.200500	0.200500	0.200500	0.200500	0.200500	0.200500	0.200500	0.200500	0.200500	0.200500	0.200500	0.200500	0.200500	0.200500	0.200500	0.200500	0.200500	0.200500	0.200500
-159.000000	0.219600	0.219600	0.219600	0.219600	0.219600	0.219600	0.215700	0.219600	0.219600	0.219600	0.219600	0.219600	0.219600	0.219600	0.219600	0.219600	0.219600	0.219600	0.219600	0.219600	0.219600	0.219600	0.219600	0.219600	0.219600	0.219600	0.219600	0.219600	0.219600	0.219600	0.219600	0.219600	0.219600	0.219600	0.219600	0.219600	0.219600	0.219600	0.219600
-158.000000	0.239300	0.239300	0.239300	0.239300	0.239300	0.239300	0.235100	0.239300	0.239300	0.239300	0.239300	0.239300	0.239300	0.239300	0.239300	0.239300	0.239300	0.239300	0.239300	0.239300	0.239300	0.239300	0.239300	0.239300	0.239300	0.239300	0.239300	0.239300	0.239300	0.239300	0.239300	0.239300	0.239300	0.239300	0.239300	0.239300	0.239300	0.239300	0.239300
-157.000000	0.259800	0.259800	0.259800	0.259800	0.259800	0.259800	0.255200	0.259800	0.259800	0.259800	0.259800	0.259800	0.259800	0.259800	0.259800	0.259800	0.259800	0.259800	0.259800	0.259800	0.259800	0.259800	0.259800	0.259800	0.259800	0.259800	0.259800	0.259800	0.259800	0.259800	0.259800	0.259800	0.259800	0.259800	0.259800	0.259800	0.259800	0.259800	0.259800
-156.000000	0.281000	0.281000	0.281000	0.281000	0.281000	0.281000	0.276000	0.281000	0.281000	0.281000	0.281000	0.281000	0.281000	0.281000	0.281000	0.281000	0.281000	0.281000	0.281000	0.281000	0.281000	0.281000	0.281000	0.281000	0.281000	0.281000	0.281000	0.281000	0.281000	0.281000	0.281000	0.281000	0.281000	0.281000	0.281000	0.281000	0.281000	0.281000	0.281000
-155.000000	0.302800	0.302800	0.302800	0.302800	0.302800	0.302800	0.297500	0.302800	0.302800	0.302800	0.302800	0.302800	0.302800	0.302800	0.302800	0.302800	0.302800	0.302800	0.302800	0.302800	0.302800	0.302800	0.302800	0.302800	0.302800	0.302800	0.302800	0.302800	0.302800	0.302800	0.302800	0.302800	0.302800	0.302800	0.302800	0.302800	0.302800	0.302800	0.302800
-154.000000	0.325300	0.325300	0.325300	0.325300	0.325300	0.325300	0.319500	0.325300	0.325300	0.325300	0.325300	0.325300	0.325300	0.325300	0.325300	0.325300	0.325300	0.325300	0.325300	0.325300	0.325300	0.325300	0.325300	0.325300	0.325300	0.325300	0.325300	0.325300	0.325300	0.325300	0.325300	0.325300	0.325300	0.325300	0.325300	0.325300	0.325300	0.325300	0.325300
-153.000000	0.348400	0.348400	0.348400	0.348400	0.348400	0.348400	0.342200	0.348400	0.348400	0.348400	0.348400	0.348400	0.348400	0.348400	0.348400	0.348400	0.348400	0.348400	0.348400	0.348400	0.348400	0.348400	0.348400	0.348400	0.348400	0.348400	0.348400	0.348400	0.348400	0.348400	0.348400	0.348400	0.348400	0.348400	0.348400	0.348400	0.348400	0.348400	0.348400
-152.000000	0.372100	0.372100	0.372100	0.372100	0.372100	0.372100	0.365500	0.372100	0.372100	0.372100	0.372100	0.372100	0.372100	0.372100	0.372100	0.372100	0.372100	0.372100	0.372100	0.372100	0.372100	0.372100	0.372100	0.372100	0.372100	0.372100	0.372100	0.372100	0.372100	0.372100	0.372100	0.372100	0.372100	0.372100	0.372100	0.372100	0.372100	0.372100	0.372100
-151.000000	0.396400	0.396400	0.396400	0.396400	0.396400	0.396400	0.389300	0.396400	0.396400	0.396400	0.396400	0.396400	0.396400	0.396400	0.396400	0.396400	0.396400	0.396400	0.396400	0.396400	0.396400	0.396400	0.396400	0.396400	0.396400	0.396400	0.396400	0.396400	0.396400	0.396400	0.396400	0.396400	0.396400	0.396400	0.396400	0.396400	0.396400	0.396400	0.396400
-150.000000	0.421100	0.421100	0.421100	0.421100	0.421100	0.421100	0.413600	0.421100	0.421100	0.421100	0.421100	0.421100	0.421100	0.421100	0.421100	0.421100	0.421100	0.421100	0.421100	0.421100	0.421100	0.421100	0.421100	0.421100	0.421100	0.421100	0.421100	0.421100	0.421100	0.421100	0.421100	0.421100	0.421100	0.421100	0.421100	0.421100	0.421100	0.421100	0.421100
-149.000000	0.446400	0.446400	0.446400	0.446400	0.446400	0.446400	0.438500	0.446400	0.446400	0.446400	0.446400	0.446400	0.446400	0.446400	0.446400	0.446400	0.446400	0.446400	0.446400	0.446400	0.446400	0.446400	0.446400	0.446400	0.446400	0.446400	0.446400	0.446400	0.446400	0.446400	0.446400	0.446400	0.446400	0.446400	0.446400	0.446400	0.446400	0.446400	0.446400
-148.000000	0.472200	0.472200	0.472200	0.472200	0.472200	0.472200	0.463700	0.472200	0.472200	0.472200	0.472200	0.472200	0.472200	0.472200	0.472200	0.472200	0.472200	0.472200	0.472200	0.472200	0.472200	0.472200	0.472200	0.472200	0.472200	0.472200	0.472200	0.472200	0.472200	0.472200	0.472200	0.472200	0.472200	0.472200	0.472200	0.472200	0.472200	0.472200	0.472200
-147.000000	0.498400	0.498400	0.498400	0.498400	0.498400	0.498400	0.489500	0.498400	0.498400	0.498400	0.498400	0.498400	0.498400	0.498400	0.498400	0.498400	0.498400	0.498400	0.498400	0.498400	0.498400	0.498400	0.498400	0.498400	0.498400	0.498400	0.498400	0.498400	0.498400	0.498400	0.498400	0.498400	0.498400	0.498400	0.498400	0.498400	0.498400	0.498400	0.498400
-146.000000	0.525000	0.525000	0.525000	0.525000	0.525000	0.525000	0.515600	0.525000	0.525000	0.525000	0.525000	0.525000	0.525000	0.525000	0.525000	0.525000	0.525000	0.525000	0.525000	0.525000	0.525000	0.525000	0.525000	0.525000	0.525000	0.525000	0.525000	0.525000	0.525000	0.525000	0.525000	0.525000	0.525000	0.525000	0.525000	0.525000	0.525000	0.525000	0.525000
-145.000000	0.551900	0.551900	0.551900	0.551900	0.551900	0.551900	0.542000	0.551900	0.551900	0.551900	0.551900	0.551900	0.551900	0.551900	0.551900	0.551900	0.551900	0.551900	0.551900	0.551900	0.551900	0.551900	0.551900	0.551900	0.551900	0.551900	0.551900	0.551900	0.551900	0.551900	0.551900	0.551900	0.551900	0.551900	0.551900	0.551900	0.551900	0.551900	0.551900
-144.000000	0.579200	0.579200	0.579200	0.579200	0.579200	0.579200	0.568900	0.579200	0.579200	0.579200	0.579200	0.579200	0.579200	0.579200	0.579200	0.579200	0.579200	0.579200	0.579200	0.579200	0.579200	0.579200	0.579200	0.579200	0.579200	0.579200	0.579200	0.579200	0.579200	0.579200	0.579200	0.579200	0.579200	0.579200	0.579200	0.579200	0.579200	0.579200	0.579200
-143.000000	0.606800	0.606800	0.606800	0.606800	0.606800	0.606800	0.596000	0.606800	0.606800	0.606800	0.606800	0.606800	0.606800	0.606800	0.606800	0.606800	0.606800	0.606800	0.606800	0.606800	0.606800	0.606800	0.606800	0.606800	0.606800	0.606800	0.606800	0.606800	0.606800	0.606800	0.606800	0.606800	0.606800	0.606800	0.606800	0.606800	0.606800	0.606800	0.606800
-142.000000	0.634700	0.634700	0.634700	0.634700	0.634700	0.634700	0.623300	0.634700	0.634700	0.634700	0.634700	0.634700	0.634700	0.634700	0.634700	0.634700	0.634700	0.634700	0.634700	0.634700	0.634700	0.634700	0.634700	0.634700	0.634700	0.634700	0.634700	0.634700	0.634700	0.634700	0.634700	0.634700	0.634700	0.634700	0.634700	0.634700	0.634700	0.634700	0.634700
-141.000000	0.662800	0.662800	0.662800	0.662800	0.662800	0.662800	0.650900	0.662800	0.662800	0.662800	0.662800	0.662800	0.662800	0.662800	0.662800	0.662800	0.662800	0.662800	0.662800	0.662800	0.662800	0.662800	0.662800	0.662800	0.662800	0.662800	0.662800	0.662800	0.662800	0.662800	0.662800	0.662800	0.662800	0.662800	0.662800	0.662800	0.662800	0.662800	0.662800
-140.000000	0.691200	0.691200	0.691200	0.691200	0.691200	0.691200	0.678800	0.691200	0.691200	0.691200	0.691200	0.691200	0.691200	0.691200	0.691200	0.691200	0.691200	0.691200	0.691200	0.691200	0.691200	0.691200	0.691200	0.691200	0.691200	0.691200	0.691200	0.691200	0.691200	0.691200	0.691200	0.691200	0.691200	0.691200	0.691200	0.691200	0.691200	0.691200	0.691200
-139.000000	0.719600	0.719600	0.719600	0.719600	0.719600	0.719600	0.706700	0.719600	0.719600	0.719600	0.719600	0.719600	0.719600	0.719600	0.719600	0.719600	0.719600	0.719600	0.719600	0.719600	0.719600	0.719600	0.719600	0.719600	0.719600	0.719600	0.719600	0.719600	0.719600	0.719600	0.719600	0.719600	0.719600	0.719600	0.719600	0.719600	0.719600	0.719600	0.719600
-138.000000	0.748300	0.748300	0.748300	0.748300	0.748300	0.748300	0.734800	0.748300	0.748300	0.748300	0.748300	0.748300	0.748300	0.748300	0.748300	0.748300	0.748300	0.748300	0.748300	0.748300	0.748300	0.748300	0.748300	0.748300	0.748300	0.748300	0.748300	0.748300	0.748300	0.748300	0.748300	0.748300	0.748300	0.748300	0.748300	0.748300	0.748300	0.748300	0.748300
-137.000000	0.777000	0.777000	0.777000	0.777000	0.777000	0.777000	0.763000	0.777000	0.777000	0.777000	0.777000	0.777000	0.777000	0.777000	0.777000	0.777000	0.777000	0.777000	0.777000	0.777000	0.777000	0.777000	0.777000	0.777000	0.777000	0.777000	0.777000	0.777000	0.777000	0.777000	0.777000	0.777000	0.777000	0.777000	0.777000	0.777000	0.777000	0.777000	0.777000
-136.000000	0.805800	0.805800	0.805800	0.805800	0.805800	0.805800	0.791300	0.805800	0.805800	0.805800	0.805800	0.805800	0.805800	0.805800	0.805800	0.805800	0.805800	0.805800	0.805800	0.805800	0.805800	0.805800	0.805800	0.805800	0.805800	0.805800	0.805800	0.805800	0.805800	0.805800	0.805800	0.805800	0.805800	0.805800	0.805800	0.805800	0.805800	0.805800	0.805800
-135.000000	0.834600	0.834600	0.834600	0.834600	0.834600	0.834600	0.819600	0.834600	0.834600	0.834600	0.834600	0.834600	0.834600	0.834600	0.834600	0.834600	0.834600	0.834600	0.834600	0.834600	0.834600	0.834600	0.834600	0.834600	0.834600	0.834600	0.834600	0.834600	0.834600	0.834600	0.834600	0.834600	0.834600	0.834600	0.834600	0.834600	0.834600	0.834600	0.834600
-134.000000	0.863400	0.863400	0.863400	0.863400	0.863400	0.863400	0.847900	0.863400	0.863400	0.863400	0.863400	0.863400	0.863400	0.863400	0.863400	0.863400	0.863400	0.863400	0.863400	0.863400	0.863400	0.863400	0.863400	0.863400	0.863400	0.863400	0.863400	0.863400	0.863400	0.863400	0.863400	0.863400	0.863400	0.863400	0.863400	0.863400	0.863400	0.863400	0.863400
-133.000000	0.892200	0.892200	0.892200	0.892200	0.892200	0.892200	0.876200	0.892200	0.892200	0.892200	0.892200	0.892200	0.892200	0.892200	0.892200	0.892200	0.892200	0.892200	0.892200	0.892200	0.892200	0.892200	0.892200	0.892200	0.892200	0.892200	0.892200	0.892200	0.892200	0.892200	0.892200	0.892200	0.892200	0.892200	0.892200	0.892200	0.892200	0.892200	0.892200
-132.000000	0.920900	0.920900	0.920900	0.920900	0.920900	0.920900	0.904300	0.920900	0.920900	0.920900	0.920900	0.920900	0.920900	0.920900	0.920900	0.920900	0.920900	0.920900	0.920900	0.920900	0.920900	0.920900	0.920900	0.920900	0.920900	0.920900	0.920900	0.920900	0.920900	0.920900	0.920900	0.920900	0.920900	0.920900	0.920900	0.920900	0.920900	0.920900	0.920900
-131.000000	0.949500	0.949500	0.949500	0.949500	0.949500	0.949500	0.932400	0.949500	0.949500	0.949500	0.949500	0.949500	0.949500	0.949500	0.949500	0.949500	0.949500	0.949500	0.949500	0.949500	0.949500	0.949500	0.949500	0.949500	0.949500	0.949500	0.949500	0.949500	0.949500	0.949500	0.949500	0.949500	0.949500	0.949500	0.949500	0.949500	0.949500	0.949500	0.949500
-130.000000	0.977900	0.977900	0.977900	0.977900	0.977900	0.977900	0.960300	0.977900	0.977900	0.977900	0.977900	0.977900	0.977900	0.977900	0.977900	0.977900	0.977900	0.977900	0.977900	0.977900	0.977900	0.977900	0.977900	0.977900	0.977900	0.977900	0.977900	0.977900	0.977900	0.977900	0.977900	0.977900	0.977900	0.977900	0.977900	0.977900	0.977900	0.977900	0.977900
-129.000000	1.006200	1.006200	1.006200	1.006200	1.006200	1.006200	0.988100	1.006200	1.006200	1.006200	1.006200	1.006200	1.006200	1.006200	1.006200	1.006200	1.006200	1.006200	1.006200	1.006200	1.006200	1.006200	1.006200	1.006200	1.006200	1.006200	1.006200	1.006200	1.006200	1.006200	1.006200	1.006200	1.006200	1.006200	1.006200	1.006200	1.006200	1.006200	1.006200
-128.000000	1.034300	1.034300	1.034300	1.034300	1.034300	1.034300	1.015600	1.034300	1.034300	1.034300	1.034300	1.034300	1.034300	1.034300	1.034300	1.034300	1.034300	1.034300	1.034300	1.034300	1.034300	1.034300	1.034300	1.034300	1.034300	1.034300	1.034300	1.034300	1.034300	1.034300	1.034300	1.034300	1.034300	1.034300	1.034300	1.034300	1.034300	1.034300	1.034300
-127.000000	1.062100	1.062100	1.062100	1.062100	1.062100	1.062100	1.042900	1.062100	1.062100	1.062100	1.062100	1.062100	1.062100	1.062100	1.062100	1.062100	1.062100	1.062100	1.062100	1.062100	1.062100	1.062100	1.062100	1.062100	1.062100	1.062100	1.062100	1.062100	1.062100	1.062100	1.062100	1.062100	1.062100	1.062100	1.062100	1.062100	1.062100	1.062100	1.062100
-126.000000	1.089600	1.089600	1.089600	1.089600	1.089600	1.089600	1.070000	1.089600	1.089600	1.089600	1.089600	1.089600	1.089600	1.089600	1.089600	1.089600	1.089600	1.089600	1.089600	1.089600	1.089600	1.089600	1.089600	1.089600	1.089600	1.089600	1.089600	1.089600	1.089600	1.089600	1.089600	1.089600	1.089600	1.089600	1.089600	1.089600	1.089600	1.089600	1.089600
-125.000000	1.116800	1.116800	1.116800	1.116800	1.116800	1.116800	1.096700	1.116800	1.116800	1.116800	1.116800	1.116800	1.116800	1.116800	1.116800	1.116800	1.116800	1.116800	1.116800	1.116800	1.116800	1.116800	1.116800	1.116800	1.116800	1.116800	1.116800	1.116800	1.116800	1.116800	1.116800	1.116800	1.116800	1.116800	1.116800	1.116800	1.116800	1.116800	1.116800
-124.000000	1.143700	1.143700	1.143700	1.143700	1.143700	1.143700	1.123000	1.143700	1.143700	1.143700	1.143700	1.143700	1.143700	1.143700	1.143700	1.143700	1.143700	1.143700	1.143700	1.143700	1.143700	1.143700	1.143700	1.143700	1.143700	1.143700	1.143700	1.143700	1.143700	1.143700	1.143700	1.143700	1.143700	1.143700	1.143700	1.143700	1.143700	1.143700	1.143700
-123.000000	1.170100	1.170100	1.170100	1.170100	1.170100	1.170100	1.149000	1.170100	1.170100	1.170100	1.170100	1.170100	1.170100	1.170100	1.170100	1.170100	1.170100	1.170100	1.170100	1.170100	1.170100	1.170100	1.170100	1.170100	1.170100	1.170100	1.170100	1.170100	1.170100	1.170100	1.170100	1.170100	1.170100	1.170100	1.170100	1.170100	1.170100	1.170100	1.170100
-122.000000	1.196200	1.196200	1.196200	1.196200	1.196200	1.196200	1.174600	1.196200	1.196200	1.196200	1.196200	1.196200	1.196200	1.196200	1.196200	1.196200	1.196200	1.196200	1.196200	1.196200	1.196200	1.196200	1.196200	1.196200	1.196200	1.196200	1.196200	1.196200	1.196200	1.196200	1.196200	1.196200	1.196200	1.196200	1.196200	1.196200	1.196200	1.196200	1.196200
-121.000000	1.221800	1.221800	1.221800	1.221800	1.221800	1.221800	1.199800	1.221800	1.221800	1.221800	1.221800	1.221800	1.221800	1.221800	1.221800	1.221800	1.221800	1.221800	1.221800	1.221800	1.221800	1.221800	1.221800	1.221800	1.221800	1.221800	1.221800	1.221800	1.221800	1.221800	1.221800	1.221800	1.221800	1.221800	1.221800	1.221800	1.221800	1.221800	1.221800
-120.000000	1.247000	1.247000	1.247000	1.247000	1.247000	1.247000	1.224500	1.247000	1.247000	1.247000	1.247000	1.247000	1.247000	1.247000	1.247000	1.247000	1.247000	1.247000	1.247000	1.247000	1.247000	1.247000	1.247000	1.247000	1.247000	1.247000	1.247000	1.247000	1.247000	1.247000	1.247000	1.247000	1.247000	1.247000	1.247000	1.247000	1.247000	1.247000	1.247000
-119.000000	1.271600	1.271600	1.271600	1.271600	1.271600	1.271600	1.248700	1.271600	1.271600	1.271600	1.271600	1.271600	1.271600	1.271600	1.271600	1.271600	1.271600	1.271600	1.271600	1.271600	1.271600	1.271600	1.271600	1.271600	1.271600	1.271600	1.271600	1.271600	1.271600	1.271600	1.271600	1.271600	1.271600	1.271600	1.271600	1.271600	1.271600	1.271600	1.271600
-118.000000	1.295800	1.295800	1.295800	1.295800	1.295800	1.295800	1.272400	1.295800	1.295800	1.295800	1.295800	1.295800	1.295800	1.295800	1.295800	1.295800	1.295800	1.295800	1.295800	1.295800	1.295800	1.295800	1.295800	1.295800	1.295800	1.295800	1.295800	1.295800	1.295800	1.295800	1.295800	1.295800	1.295800	1.295800	1.295800	1.295800	1.295800	1.295800	1.295800
-117.000000	1.319300	1.319300	1.319300	1.319300	1.319300	1.319300	1.295500	1.319300	1.319300	1.319300	1.319300	1.319300	1.319300	1.319300	1.319300	1.319300	1.319300	1.319300	1.319300	1.319300	1.319300	1.319300	1.319300	1.319300	1.319300	1.319300	1.319300	1.319300	1.319300	1.319300	1.319300	1.319300	1.319300	1.319300	1.319300	1.319300	1.319300	1.319300	1.319300
-116.000000	1.342300	1.342300	1.342300	1.342300	1.342300	1.342300	1.318000	1.342300	1.342300	1.342300	1.342300	1.342300	1.342300	1.342300	1.342300	1.342300	1.342300	1.342300	1.342300	1.342300	1.342300	1.342300	1.342300	1.342300	1.342300	1.342300	1.342300	1.342300	1.342300	1.342300	1.342300	1.342300	1.342300	1.342300	1.342300	1.342300	1.342300	1.342300	1.342300
-115.000000	1.364600	1.364600	1.364600	1.364600	1.364600	1.364600	1.340000	1.364600	1.364600	1.364600	1.364600	1.364600	1.364600	1.364600	1.364600	1.364600	1.364600	1.364600	1.364600	1.364600	1.364600	1.364600	1.364600	1.364600	1.364600	1.364600	1.364600	1.364600	1.364600	1.364600	1.364600	1.364600	1.364600	1.364600	1.364600	1.364600	1.364600	1.364600	1.364600
-114.000000	1.386300	1.386300	1.386300	1.386300	1.386300	1.386300	1.361200	1.386300	1.386300	1.386300	1.386300	1.386300	1.386300	1.386300	1.386300	1.386300	1.386300	1.386300	1.386300	1.386300	1.386300	1.386300	1.386300	1.386300	1.386300	1.386300	1.386300	1.386300	1.386300	1.386300	1.386300	1.386300	1.386300	1.386300	1.386300	1.386300	1.386300	1.386300	1.386300
-113.000000	1.407300	1.407300	1.407300	1.407300	1.407300	1.407300	1.381900	1.407300	1.407300	1.407300	1.407300	1.407300	1.407300	1.407300	1.407300	1.407300	1.407300	1.407300	1.407300	1.407300	1.407300	1.407300	1.407300	1.407300	1.407300	1.407300	1.407300	1.407300	1.407300	1.407300	1.407300	1.407300	1.407300	1.407300	1.407300	1.407300	1.407300	1.407300	1.407300
-112.000000	1.427600	1.427600	1.427600	1.427600	1.427600	1.427600	1.401800	1.427600	1.427600	1.427600	1.427600	1.427600	1.427600	1.427600	1.427600	1.427600	1.427600	1.427600	1.427600	1.427600	1.427600	1.427600	1.427600	1.427600	1.427600	1.427600	1.427600	1.427600	1.427600	1.427600	1.427600	1.427600	1.427600	1.427600	1.427600	1.427600	1.427600	1.427600	1.427600
-111.000000	1.447200	1.447200	1.447200	1.447200	1.447200	1.447200	1.421100	1.447200	1.447200	1.447200	1.447200	1.447200	1.447200	1.447200	1.447200	1.447200	1.447200	1.447200	1.447200	1.447200	1.447200	1.447200	1.447200	1.447200	1.447200	1.447200	1.447200	1.447200	1.447200	1.447200	1.447200	1.447200	1.447200	1.447200	1.447200	1.447200	1.447200	1.447200	1.447200
-110.000000	1.466100	1.466100	1.466100	1.466100	1.466100	1.466100	1.439600	1.466100	1.466100	1.466100	1.466100	1.466100	1.466100	1.466100	1.466100	1.466100	1.466100	1.466100	1.466100	1.466100	1.466100	1.466100	1.466100	1.466100	1.466100	1.466100	1.466100	1.466100	1.466100	1.466100	1.466100	1.466100	1.466100	1.466100	1.466100	1.466100	1.466100	1.466100	1.466100
-109.000000	1.484100	1.484100	1.484100	1.484100	1.484100	1.484100	1.457300	1.484100	1.484100	1.484100	1.484100	1.484100	1.484100	1.484100	1.484100	1.484100	1.484100	1.484100	1.484100	1.484100	1.484100	1.484100	1.484100	1.484100	1.484100	1.484100	1.484100	1.484100	1.484100	1.484100	1.484100	1.484100	1.484100	1.484100	1.484100	1.484100	1.484100	1.484100	1.484100
-108.000000	1.501400	1.501400	1.501400	1.501400	1.501400	1.501400	1.474300	1.501400	1.501400	1.501400	1.501400	1.501400	1.501400	1.501400	1.501400	1.501400	1.501400	1.501400	1.501400	1.501400	1.501400	1.501400	1.501400	1.501400	1.501400	1.501400	1.501400	1.501400	1.501400	1.501400	1.501400	1.501400	1.501400	1.501400	1.501400	1.501400	1.501400	1.501400	1.501400
-107.000000	1.517900	1.517900	1.517900	1.517900	1.517900	1.517900	1.490500	1.517900	1.517900	1.517900	1.517900	1.517900	1.517900	1.517900	1.517900	1.517900	1.517900	1.517900	1.517900	1.517900	1.517900	1.517900	1.517900	1.517900	1.517900	1.517900	1.517900	1.517900	1.517900	1.517900	1.517900	1.517900	1.517900	1.517900	1.517900	1.517900	1.517900	1.517900	1.517900
-106.000000	1.533500	1.533500	1.533500	1.533500	1.533500	1.533500	1.505800	1.533500	1.533500	1.533500	1.533500	1.533500	1.533500	1.533500	1.533500	1.533500	1.533500	1.533500	1.533500	1.533500	1.533500	1.533500	1.533500	1.533500	1.533500	1.533500	1.533500	1.533500	1.533500	1.533500	1.533500	1.533500	1.533500	1.533500	1.533500	1.533500	1.533500	1.533500	1.533500
-105.000000	1.548300	1.548300	1.548300	1.548300	1.548300	1.548300	1.520300	1.548300	1.548300	1.548300	1.548300	1.548300	1.548300	1.548300	1.548300	1.548300	1.548300	1.548300	1.548300	1.548300	1.548300	1.548300	1.548300	1.548300	1.548300	1.548300	1.548300	1.548300	1.548300	1.548300	1.548300	1.548300	1.548300	1.548300	1.548300	1.548300	1.548300	1.548300	1.548300
-104.000000	1.562200	1.562200	1.562200	1.562200	1.562200	1.562200	1.534000	1.562200	1.562200	1.562200	1.562200	1.562200	1.562200	1.562200	1.562200	1.562200	1.562200	1.562200	1.562200	1.562200	1.562200	1.562200	1.562200	1.562200	1.562200	1.562200	1.562200	1.562200	1.562200	1.562200	1.562200	1.562200	1.562200	1.562200	1.562200	1.562200	1.562200	1.562200	1.562200
-103.000000	1.575300	1.575300	1.575300	1.575300	1.575300	1.575300	1.546800	1.575300	1.575300	1.575300	1.575300	1.575300	1.575300	1.575300	1.575300	1.575300	1.575300	1.575300	1.575300	1.575300	1.575300	1.575300	1.575300	1.575300	1.575300	1.575300	1.575300	1.575300	1.575300	1.575300	1.575300	1.575300	1.575300	1.575300	1.575300	1.575300	1.575300	1.575300	1.575300
-102.000000	1.587400	1.587400	1.587400	1.587400	1.587400	1.587400	1.558700	1.587400	1.587400	1.587400	1.587400	1.587400	1.587400	1.587400	1.587400	1.587400	1.587400	1.587400	1.587400	1.587400	1.587400	1.587400	1.587400	1.587400	1.587400	1.587400	1.587400	1.587400	1.587400	1.587400	1.587400	1.587400	1.587400	1.587400	1.587400	1.587400	1.587400	1.587400	1.587400
-101.000000	1.598600	1.598600	1.598600	1.598600	1.598600	1.598600	1.569700	1.598600	1.598600	1.598600	1.598600	1.598600	1.598600	1.598600	1.598600	1.598600	1.598600	1.598600	1.598600	1.598600	1.598600	1.598600	1.598600	1.598600	1.598600	1.598600	1.598600	1.598600	1.598600	1.598600	1.598600	1.598600	1.598600	1.598600	1.598600	1.598600	1.598600	1.598600	1.598600
-100.000000	1.608900	1.608900	1.608900	1.608900	1.608900	1.608900	1.579800	1.608900	1.608900	1.608900	1.608900	1.608900	1.608900	1.608900	1.608900	1.608900	1.608900	1.608900	1.608900	1.608900	1.608900	1.608900	1.608900	1.608900	1.608900	1.608900	1.608900	1.608900	1.608900	1.608900	1.608900	1.608900	1.608900	1.608900	1.608900	1.608900	1.608900	1.608900	1.608900
-99.000000	1.618300	1.618300	1.618300	1.618300	1.618300	1.618300	1.589000	1.618300	1.618300	1.618300	1.618300	1.618300	1.618300	1.618300	1.618300	1.618300	1.618300	1.618300	1.618300	1.618300	1.618300	1.618300	1.618300	1.618300	1.618300	1.618300	1.618300	1.618300	1.618300	1.618300	1.618300	1.618300	1.618300	1.618300	1.618300	1.618300	1.618300	1.618300	1.618300
-98.000000	1.626600	1.626600	1.626600	1.626600	1.626600	1.626600	1.597200	1.626600	1.626600	1.626600	1.626600	1.626600	1.626600	1.626600	1.626600	1.626600	1.626600	1.626600	1.626600	1.626600	1.626600	1.626600	1.626600	1.626600	1.626600	1.626600	1.626600	1.626600	1.626600	1.626600	1.626600	1.626600	1.626600	1.626600	1.626600	1.626600	1.626600	1.626600	1.626600
-97.000000	1.634100	1.634100	1.634100	1.634100	1.634100	1.634100	1.604500	1.634100	1.634100	1.634100	1.634100	1.634100	1.634100	1.634100	1.634100	1.634100	1.634100	1.634100	1.634100	1.634100	1.634100	1.634100	1.634100	1.634100	1.634100	1.634100	1.634100	1.634100	1.634100	1.634100	1.634100	1.634100	1.634100	1.634100	1.634100	1.634100	1.634100	1.634100	1.634100
-96.000000	1.640500	1.640500	1.640500	1.640500	1.640500	1.640500	1.610900	1.640500	1.640500	1.640500	1.640500	1.640500	1.640500	1.640500	1.640500	1.640500	1.640500	1.640500	1.640500	1.640500	1.640500	1.640500	1.640500	1.640500	1.640500	1.640500	1.640500	1.640500	1.640500	1.640500	1.640500	1.640500	1.640500	1.640500	1.640500	1.640500	1.640500	1.640500	1.640500
-95.000000	1.646000	1.646000	1.646000	1.646000	1.646000	1.646000	1.616200	1.646000	1.646000	1.646000	1.646000	1.646000	1.646000	1.646000	1.646000	1.646000	1.646000	1.646000	1.646000	1.646000	1.646000	1.646000	1.646000	1.646000	1.646000	1.646000	1.646000	1.646000	1.646000	1.646000	1.646000	1.646000	1.646000	1.646000	1.646000	1.646000	1.646000	1.646000	1.646000
-94.000000	1.650500	1.650500	1.650500	1.650500	1.650500	1.650500	1.620600	1.650500	1.650500	1.650500	1.650500	1.650500	1.650500	1.650500	1.650500	1.650500	1.650500	1.650500	1.650500	1.650500	1.650500	1.650500	1.650500	1.650500	1.650500	1.650500	1.650500	1.650500	1.650500	1.650500	1.650500	1.650500	1.650500	1.650500	1.650500	1.650500	1.650500	1.650500	1.650500
-93.000000	1.654000	1.654000	1.654000	1.654000	1.654000	1.654000	1.624100	1.654000	1.654000	1.654000	1.654000	1.654000	1.654000	1.654000	1.654000	1.654000	1.654000	1.654000	1.654000	1.654000	1.654000	1.654000	1.654000	1.654000	1.654000	1.654000	1.654000	1.654000	1.654000	1.654000	1.654000	1.654000	1.654000	1.654000	1.654000	1.654000	1.654000	1.654000	1.654000
-92.000000	1.656500	1.656500	1.656500	1.656500	1.656500	1.656500	1.626500	1.656500	1.656500	1.656500	1.656500	1.656500	1.656500	1.656500	1.656500	1.656500	1.656500	1.656500	1.656500	1.656500	1.656500	1.656500	1.656500	1.656500	1.656500	1.656500	1.656500	1.656500	1.656500	1.656500	1.656500	1.656500	1.656500	1.656500	1.656500	1.656500	1.656500	1.656500	1.656500
-91.000000	1.658000	1.658000	1.658000	1.658000	1.658000	1.658000	1.628000	1.658000	1.658000	1.658000	1.658000	1.658000	1.658000	1.658000	1.658000	1.658000	1.658000	1.658000	1.658000	1.658000	1.658000	1.658000	1.658000	1.658000	1.658000	1.658000	1.658000	1.658000	1.658000	1.658000	1.658000	1.658000	1.658000	1.658000	1.658000	1.658000	1.658000	1.658000	1.658000
-90.000000	1.658500	1.658500	1.658500	1.658500	1.658500	1.658500	1.628500	1.658500	1.658500	1.658500	1.658500	1.658500	1.658500	1.658500	1.658500	1.658500	1.658500	1.658500	1.658500	1.658500	1.658500	1.658500	1.658500	1.658500	1.658500	1.658500	1.658500	1.658500	1.658500	1.658500	1.658500	1.658500	1.658500	1.658500	1.658500	1.658500	1.658500	1.658500	1.658500
-89.000000	1.658000	1.658000	1.658000	1.658000	1.658000	1.658000	1.628000	1.658000	1.658000	1.658000	1.658000	1.658000	1.658000	1.658000	1.658000	1.658000	1.658000	1.658000	1.658000	1.658000	1.658000	1.658000	1.658000	1.658000	1.658000	1.658000	1.658000	1.658000	1.658000	1.658000	1.658000	1.658000	1.658000	1.658000	1.658000	1.658000	1.658000	1.658000	1.658000
-88.000000	1.656500	1.656500	1.656500	1.656500	1.656500	1.656500	1.626500	1.656500	1.656500	1.656500	1.656500	1.656500	1.656500	1.656500	1.656500	1.656500	1.656500	1.656500	1.656500	1.656500	1.656500	1.656500	1.656500	1.656500	1.656500	1.656500	1.656500	1.656500	1.656500	1.656500	1.656500	1.656500	1.656500	1.656500	1.656500	1.656500	1.656500	1.656500	1.656500
-87.000000	1.654000	1.654000	1.654000	1.654000	1.654000	1.654000	1.624100	1.654000	1.654000	1.654000	1.654000	1.654000	1.654000	1.654000	1.654000	1.654000	1.654000	1.654000	1.654000	1.654000	1.654000	1.654000	1.654000	1.654000	1.654000	1.654000	1.654000	1.654000	1.654000	1.654000	1.654000	1.654000	1.654000	1.654000	1.654000	1.654000	1.654000	1.654000	1.654000
-86.000000	1.650500	1.650500	1.650500	1.650500	1.650500	1.650500	1.620600	1.650500	1.650500	1.650500	1.650500	1.650500	1.650500	1.650500	1.650500	1.650500	1.650500	1.650500	1.650500	1.650500	1.650500	1.650500	1.650500	1.650500	1.650500	1.650500	1.650500	1.650500	1.650500	1.650500	1.650500	1.650500	1.650500	1.650500	1.650500	1.650500	1.650500	1.650500	1.650500
-85.000000	1.646000	1.646000	1.646000	1.646000	1.646000	1.646000	1.616200	1.646000	1.646000	1.646000	1.646000	1.646000	1.646000	1.646000	1.646000	1.646000	1.646000	1.646000	1.646000	1.646000	1.646000	1.646000	1.646000	1.646000	1.646000	1.646000	1.646000	1.646000	1.646000	1.646000	1.646000	1.646000	1.646000	1.646000	1.646000	1.646000	1.646000	1.646000	1.646000
-84.000000	1.640500	1.640500	1.640500	1.640500	1.640500	1.640500	1.610900	1.640500	1.640500	1.640500	1.640500	1.640500	1.640500	1.640500	1.640500	1.640500	1.640500	1.640500	1.640500	1.640500	1.640500	1.640500	1.640500	1.640500	1.640500	1.640500	1.640500	1.640500	1.640500	1.640500	1.640500	1.640500	1.640500	1.640500	1.640500	1.640500	1.640500	1.640500	1.640500
-83.000000	1.634100	1.634100	1.634100	1.634100	1.634100	1.634100	1.604500	1.634100	1.634100	1.634100	1.634100	1.634100	1.634100	1.634100	1.634100	1.634100	1.634100	1.634100	1.634100	1.634100	1.634100	1.634100	1.634100	1.634100	1.634100	1.634100	1.634100	1.634100	1.634100	1.634100	1.634100	1.634100	1.634100	1.634100	1.634100	1.634100	1.634100	1.634100	1.634100
-82.000000	1.626600	1.626600	1.626600	1.626600	1.626600	1.626600	1.597200	1.626600	1.626600	1.626600	1.626600	1.626600	1.626600	1.626600	1.626600	1.626600	1.626600	1.626600	1.626600	1.626600	1.626600	1.626600	1.626600	1.626600	1.626600	1.626600	1.626600	1.626600	1.626600	1.626600	1.626600	1.626600	1.626600	1.626600	1.626600	1.626600	1.626600	1.626600	1.626600
-81.000000	1.618200	1.618200	1.618200	1.618200	1.618200	1.618200	1.589000	1.618200	1.618200	1.618200	1.618200	1.618200	1.618200	1.618200	1.618200	1.618200	1.618200	1.618200	1.618200	1.618200	1.618200	1.618200	1.618200	1.618200	1.618200	1.618200	1.618200	1.618200	1.618200	1.618200	1.618200	1.618200	1.618200	1.618200	1.618200	1.618200	1.618300	1.618300	1.618300
-80.000000	1.608900	1.608900	1.608900	1.608900	1.608900	1.608900	1.579800	1.608900	1.608900	1.608900	1.608900	1.608900	1.608900	1.608900	1.608900	1.608900	1.608900	1.608900	1.608900	1.608900	1.608900	1.608900	1.608900	1.608900	1.608900	1.608900	1.608900	1.608900	1.608900	1.608900	1.608900	1.608900	1.608900	1.608900	1.608900	1.608900	1.608900	1.608900	1.608900
-79.000000	1.598600	1.598600	1.598600	1.598600	1.598600	1.598600	1.569700	1.598600	1.598600	1.598600	1.598600	1.598600	1.598600	1.598600	1.598600	1.598600	1.598600	1.598600	1.598600	1.598600	1.598600	1.598600	1.598600	1.598600	1.598600	1.598600	1.598600	1.598600	1.598600	1.598600	1.598600	1.598600	1.598600	1.598600	1.598600	1.598600	1.598600	1.598600	1.598600
-78.000000	1.587400	1.587400	1.587400	1.587400	1.587400	1.587400	1.558700	1.587400	1.587400	1.587400	1.587400	1.587400	1.587400	1.587400	1.587400	1.587400	1.587400	1.587400	1.587400	1.587400	1.587400	1.587400	1.587400	1.587400	1.587400	1.587400	1.587400	1.587400	1.587400	1.587400	1.587400	1.587400	1.587400	1.587400	1.587400	1.587400	1.587400	1.587400	1.587400
-77.000000	1.575300	1.575300	1.575300	1.575300	1.575300	1.575300	1.546800	1.575300	1.575300	1.575300	1.575300	1.575300	1.575300	1.575300	1.575300	1.575300	1.575300	1.575300	1.575300	1.575300	1.575300	1.575300	1.575300	1.575300	1.575300	1.575300	1.575300	1.575300	1.575300	1.575300	1.575300	1.575300	1.575300	1.575300	1.575300	1.575300	1.575300	1.575300	1.575300
-76.000000	1.562200	1.562200	1.562200	1.562200	1.562200	1.562200	1.534000	1.562200	1.562200	1.562200	1.562200	1.562200	1.562200	1.562200	1.562200	1.562200	1.562200	1.562200	1.562200	1.562200	1.562200	1.562200	1.562200	1.562200	1.562200	1.562200	1.562200	1.562200	1.562200	1.562200	1.562200	1.562200	1.562200	1.562200	1.562200	1.562200	1.562200	1.562200	1.562200
-75.000000	1.548300	1.548300	1.548300	1.548300	1.548300	1.548300	1.520300	1.548300	1.548300	1.548300	1.548300	1.548300	1.548300	1.548300	1.548300	1.548300	1.548300	1.548300	1.548300	1.548300	1.548300	1.548300	1.548300	1.548300	1.548300	1.548300	1.548300	1.548300	1.548300	1.548300	1.548300	1.548300	1.548300	1.548300	1.548300	1.548300	1.548300	1.548300	1.548300
-74.000000	1.533500	1.533500	1.533500	1.533500	1.533500	1.533500	1.505800	1.533500	1.533500	1.533500	1.533500	1.533500	1.533500	1.533500	1.533500	1.533500	1.533500	1.533500	1.533500	1.533500	1.533500	1.533500	1.533500	1.533500	1.533500	1.533500	1.533500	1.533500	1.533500	1.533500	1.533500	1.533500	1.533500	1.533500	1.533500	1.533500	1.533500	1.533500	1.533500
-73.000000	1.517900	1.517900	1.517900	1.517900	1.517900	1.517900	1.490400	1.517900	1.517900	1.517900	1.517900	1.517900	1.517900	1.517900	1.517900	1.517900	1.517900	1.517900	1.517900	1.517900	1.517900	1.517900	1.517900	1.517900	1.517900	1.517900	1.517900	1.517900	1.517900	1.517900	1.517900	1.517900	1.517900	1.517900	1.517900	1.517900	1.517900	1.517900	1.517900
-72.000000	1.501400	1.501400	1.501400	1.501400	1.501400	1.501400	1.474300	1.501400	1.501400	1.501400	1.501400	1.501400	1.501400	1.501400	1.501400	1.501400	1.501400	1.501400	1.501400	1.501400	1.501400	1.501400	1.501400	1.501400	1.501400	1.501400	1.501400	1.501400	1.501400	1.501400	1.501400	1.501400	1.501400	1.501400	1.501400	1.501400	1.501400	1.501400	1.501400
-71.000000	1.484100	1.484100	1.484100	1.484100	1.484100	1.484100	1.457300	1.484100	1.484100	1.484100	1.484100	1.484100	1.484100	1.484100	1.484100	1.484100	1.484100	1.484100	1.484100	1.484100	1.484100	1.484100	1.484100	1.484100	1.484100	1.484100	1.484100	1.484100	1.484100	1.484100	1.484100	1.484100	1.484100	1.484100	1.484100	1.484100	1.484100	1.484100	1.484100
-70.000000	1.466000	1.466000	1.466000	1.466000	1.466000	1.466000	1.439500	1.466000	1.466000	1.466000	1.466000	1.466000	1.466000	1.466000	1.466000	1.466000	1.466000	1.466000	1.466000	1.466000	1.466000	1.466000	1.466000	1.466000	1.466000	1.466000	1.466000	1.466000	1.466000	1.466000	1.466000	1.466000	1.466000	1.466000	1.466000	1.466000	1.466100	1.466100	1.466100
-69.000000	1.447200	1.447200	1.447200	1.447200	1.447200	1.447200	1.421000	1.447200	1.447200	1.447200	1.447200	1.447200	1.447200	1.447200	1.447200	1.447200	1.447200	1.447200	1.447200	1.447200	1.447200	1.447200	1.447200	1.447200	1.447200	1.447200	1.447200	1.447200	1.447200	1.447200	1.447200	1.447200	1.447200	1.447200	1.447200	1.447200	1.447200	1.447200	1.447200
-68.000000	1.427600	1.427600	1.427600	1.427600	1.427600	1.427600	1.401800	1.427600	1.427600	1.427600	1.427600	1.427600	1.427600	1.427600	1.427600	1.427600	1.427600	1.427600	1.427600	1.427600	1.427600	1.427600	1.427600	1.427600	1.427600	1.427600	1.427600	1.427600	1.427600	1.427600	1.427600	1.427600	1.427600	1.427600	1.427600	1.427600	1.427600	1.427600	1.427600
-67.000000	1.407300	1.407300	1.407300	1.407300	1.407300	1.407300	1.381900	1.407300	1.407300	1.407300	1.407300	1.407300	1.407300	1.407300	1.407300	1.407300	1.407300	1.407300	1.407300	1.407300	1.407300	1.407300	1.407300	1.407300	1.407300	1.407300	1.407300	1.407300	1.407300	1.407300	1.407300	1.407300	1.407300	1.407300	1.407300	1.407300	1.407300	1.407300	1.407300
-66.000000	1.386300	1.386300	1.386300	1.386300	1.386300	1.386300	1.361200	1.386300	1.386300	1.386300	1.386300	1.386300	1.386300	1.386300	1.386300	1.386300	1.386300	1.386300	1.386300	1.386300	1.386300	1.386300	1.386300	1.386300	1.386300	1.386300	1.386300	1.386300	1.386300	1.386300	1.386300	1.386300	1.386300	1.386300	1.386300	1.386300	1.386300	1.386300	1.386300
-65.000000	1.364600	1.364600	1.364600	1.364600	1.364600	1.364600	1.339900	1.364600	1.364600	1.364600	1.364600	1.364600	1.364600	1.364600	1.364600	1.364600	1.364600	1.364600	1.364600	1.364600	1.364600	1.364600	1.364600	1.364600	1.364600	1.364600	1.364600	1.364600	1.364600	1.364600	1.364600	1.364600	1.364600	1.364600	1.364600	1.364600	1.364600	1.364600	1.364600
-64.000000	1.342200	1.342200	1.342200	1.342200	1.342200	1.342200	1.318000	1.342200	1.342200	1.342200	1.342200	1.342200	1.342200	1.342200	1.342200	1.342200	1.342200	1.342200	1.342200	1.342200	1.342200	1.342200	1.342200	1.342200	1.342200	1.342200	1.342200	1.342200	1.342200	1.342200	1.342200	1.342200	1.342200	1.342200	1.342200	1.342200	1.342300	1.342300	1.342300
-63.000000	1.319300	1.319300	1.319300	1.319300	1.319300	1.319300	1.295500	1.319300	1.319300	1.319300	1.319300	1.319300	1.319300	1.319300	1.319300	1.319300	1.319300	1.319300	1.319300	1.319300	1.319300	1.319300	1.319300	1.319300	1.319300	1.319300	1.319300	1.319300	1.319300	1.319300	1.319300	1.319300	1.319300	1.319300	1.319300	1.319300	1.319300	1.319300	1.319300
-62.000000	1.295700	1.295700	1.295700	1.295700	1.295700	1.295700	1.272300	1.295700	1.295700	1.295700	1.295700	1.295700	1.295700	1.295700	1.295700	1.295700	1.295700	1.295700	1.295700	1.295700	1.295700	1.295700	1.295700	1.295700	1.295700	1.295700	1.295700	1.295700	1.295700	1.295700	1.295700	1.295700	1.295700	1.295700	1.295700	1.295700	1.295700	1.295700	1.295700
-61.000000	1.271600	1.271600	1.271600	1.271600	1.271600	1.271600	1.248700	1.271600	1.271600	1.271600	1.271600	1.271600	1.271600	1.271600	1.271600	1.271600	1.271600	1.271600	1.271600	1.271600	1.271600	1.271600	1.271600	1.271600	1.271600	1.271600	1.271600	1.271600	1.271600	1.271600	1.271600	1.271600	1.271600	1.271600	1.271600	1.271600	1.271600	1.271600	1.271600
-60.000000	1.247000	1.247000	1.247000	1.247000	1.247000	1.247000	1.224500	1.247000	1.247000	1.247000	1.247000	1.247000	1.247000	1.247000	1.247000	1.247000	1.247000	1.247000	1.247000	1.247000	1.247000	1.247000	1.247000	1.247000	1.247000	1.247000	1.247000	1.247000	1.247000	1.247000	1.247000	1.247000	1.247000	1.247000	1.247000	1.247000	1.247000	1.247000	1.247000
-59.000000	1.221800	1.221800	1.221800	1.221800	1.221800	1.221800	1.199800	1.221800	1.221800	1.221800	1.221800	1.221800	1.221800	1.221800	1.221800	1.221800	1.221800	1.221800	1.221800	1.221800	1.221800	1.221800	1.221800	1.221800	1.221800	1.221800	1.221800	1.221800	1.221800	1.221800	1.221800	1.221800	1.221800	1.221800	1.221800	1.221800	1.221800	1.221800	1.221800
-58.000000	1.196200	1.196200	1.196200	1.196200	1.196200	1.196200	1.174600	1.196200	1.196200	1.196200	1.196200	1.196200	1.196200	1.196200	1.196200	1.196200	1.196200	1.196200	1.196200	1.196200	1.196200	1.196200	1.196200	1.196200	1.196200	1.196200	1.196200	1.196200	1.196200	1.196200	1.196200	1.196200	1.196200	1.196200	1.196200	1.196200	1.196200	1.196200	1.196200
-57.000000	1.170100	1.170100	1.170100	1.170100	1.170100	1.170100	1.149000	1.170100	1.170100	1.170100	1.170100	1.170100	1.170100	1.170100	1.170100	1.170100	1.170100	1.170100	1.170100	1.170100	1.170100	1.170100	1.170100	1.170100	1.170100	1.170100	1.170100	1.170100	1.170100	1.170100	1.170100	1.170100	1.170100	1.170100	1.170100	1.170100	1.170100	1.170100	1.170100
-56.000000	1.143600	1.143600	1.143600	1.143600	1.143600	1.143600	1.123000	1.143600	1.143600	1.143600	1.143600	1.143600	1.143600	1.143600	1.143600	1.143600	1.143600	1.143600	1.143600	1.143600	1.143600	1.143600	1.143600	1.143600	1.143600	1.143600	1.143600	1.143600	1.143600	1.143600	1.143600	1.143600	1.143600	1.143600	1.143600	1.143600	1.143700	1.143700	1.143700
-55.000000	1.116800	1.116800	1.116800	1.116800	1.116800	1.116800	1.096600	1.116800	1.116800	1.116800	1.116800	1.116800	1.116800	1.116800	1.116800	1.116800	1.116800	1.116800	1.116800	1.116800	1.116800	1.116800	1.116800	1.116800	1.116800	1.116800	1.116800	1.116800	1.116800	1.116800	1.116800	1.116800	1.116800	1.116800	1.116800	1.116800	1.116800	1.116800	1.116800
-54.000000	1.089500	1.089500	1.089500	1.089500	1.089500	1.089500	1.069900	1.089500	1.089500	1.089500	1.089500	1.089500	1.089500	1.089500	1.089500	1.089600	1.089600	1.089600	1.089600	1.089600	1.089600	1.089600	1.089600	1.089600	1.089600	1.089600	1.089600	1.089600	1.089600	1.089600	1.089600	1.089600	1.089600	1.089600	1.089600	1.089600	1.089600	1.089600	1.089600
-53.000000	1.062000	1.062000	1.062000	1.062000	1.062000	1.062000	1.042900	1.062000	1.062000	1.062000	1.062000	1.062000	1.062000	1.062000	1.062000	1.062000	1.062000	1.062000	1.062000	1.062000	1.062000	1.062000	1.062000	1.062000	1.062000	1.062000	1.062000	1.062000	1.062000	1.062000	1.062000	1.062000	1.062000	1.062000	1.062000	1.062000	1.062100	1.062100	1.062100
-52.000000	1.034200	1.034200	1.034200	1.034200	1.034200	1.034200	1.015600	1.034200	1.034200	1.034200	1.034200	1.034200	1.034200	1.034200	1.034200	1.034200	1.034200	1.034200	1.034200	1.034200	1.034200	1.034200	1.034200	1.034200	1.034200	1.034200	1.034200	1.034200	1.034200	1.034200	1.034200	1.034200	1.034200	1.034200	1.034200	1.034200	1.034200	1.034200	1.034200
-51.000000	1.006200	1.006200	1.006200	1.006200	1.006200	1.006200	0.988000	1.006200	1.006200	1.006200	1.006200	1.006200	1.006200	1.006200	1.006200	1.006200	1.006200	1.006200	1.006200	1.006200	1.006200	1.006200	1.006200	1.006200	1.006200	1.006200	1.006200	1.006200	1.006200	1.006200	1.006200	1.006200	1.006200	1.006200	1.006200	1.006200	1.006200	1.006200	1.006200
-50.000000	0.977900	0.977900	0.977900	0.977900	0.977900	0.977900	0.960300	0.977900	0.977900	0.977900	0.977900	0.977900	0.977900	0.977900	0.977900	0.977900	0.977900	0.977900	0.977900	0.977900	0.977900	0.977900	0.977900	0.977900	0.977900	0.977900	0.977900	0.977900	0.977900	0.977900	0.977900	0.977900	0.977900	0.977900	0.977900	0.977900	0.977900	0.977900	0.977900
-49.000000	0.949400	0.949400	0.949400	0.949400	0.949400	0.949400	0.932400	0.949400	0.949400	0.949400	0.949400	0.949400	0.949400	0.949400	0.949400	0.949400	0.949400	0.949400	0.949400	0.949400	0.949400	0.949400	0.949400	0.949400	0.949400	0.949400	0.949400	0.949400	0.949400	0.949400	0.949400	0.949400	0.949400	0.949400	0.949400	0.949400	0.949500	0.949500	0.949500
-48.000000	0.920800	0.920800	0.920800	0.920800	0.920800	0.920800	0.904300	0.920800	0.920800	0.920800	0.920800	0.920800	0.920800	0.920800	0.920800	0.920800	0.920800	0.920800	0.920800	0.920800	0.920800	0.920800	0.920800	0.920800	0.920800	0.920800	0.920800	0.920800	0.920800	0.920800	0.920800	0.920800	0.920800	0.920800	0.920800	0.920800	0.920900	0.920900	0.920900
-47.000000	0.892100	0.892100	0.892100	0.892100	0.892100	0.892100	0.876100	0.892100	0.892100	0.892100	0.892100	0.892100	0.892100	0.892100	0.892100	0.892100	0.892100	0.892100	0.892100	0.892100	0.892100	0.892100	0.892100	0.892100	0.892100	0.892100	0.892100	0.892100	0.892100	0.892100	0.892100	0.892100	0.892100	0.892100	0.892100	0.892100	0.892200	0.892200	0.892200
-46.000000	0.863300	0.863400	0.863400	0.863400	0.863400	0.863400	0.847800	0.863400	0.863400	0.863400	0.863400	0.863400	0.863400	0.863400	0.863400	0.863400	0.863400	0.863400	0.863400	0.863400	0.863400	0.863400	0.863400	0.863400	0.863400	0.863400	0.863400	0.863400	0.863400	0.863400	0.863400	0.863400	0.863400	0.863400	0.863400	0.863400	0.863400	0.863400	0.863400
-45.000000	0.834500	0.834500	0.834500	0.834500	0.834500	0.834500	0.819500	0.834500	0.834500	0.834500	0.834500	0.834500	0.834500	0.834500	0.834500	0.834500	0.834500	0.834500	0.834500	0.834500	0.834500	0.834500	0.834500	0.834500	0.834500	0.834500	0.834500	0.834500	0.834500	0.834500	0.834500	0.834500	0.834500	0.834500	0.834500	0.834500	0.834600	0.834600	0.834600
-44.000000	0.805700	0.805700	0.805700	0.805700	0.805700	0.805700	0.791200	0.805700	0.805700	0.805700	0.805700	0.805700	0.805700	0.805700	0.805700	0.805700	0.805700	0.805700	0.805700	0.805700	0.805700	0.805700	0.805700	0.805700	0.805700	0.805700	0.805700	0.805700	0.805700	0.805700	0.805700	0.805700	0.805700	0.805700	0.805700	0.805700	0.805800	0.805800	0.805800
-43.000000	0.776900	0.776900	0.776900	0.776900	0.776900	0.776900	0.763000	0.776900	0.776900	0.776900	0.776900	0.776900	0.776900	0.776900	0.776900	0.776900	0.776900	0.776900	0.776900	0.776900	0.776900	0.776900	0.776900	0.776900	0.776900	0.776900	0.776900	0.776900	0.776900	0.776900	0.776900	0.776900	0.776900	0.776900	0.776900	0.776900	0.777000	0.777000	0.777000
-42.000000	0.748200	0.748200	0.748200	0.748200	0.748200	0.748200	0.734700	0.748200	0.748200	0.748200	0.748200	0.748200	0.748200	0.748200	0.748200	0.748200	0.748200	0.748200	0.748200	0.748200	0.748200	0.748200	0.748200	0.748200	0.748200	0.748200	0.748200	0.748200	0.748200	0.748200	0.748200	0.748200	0.748200	0.748200	0.748200	0.748200	0.748200	0.748200	0.748200
-41.000000	0.719500	0.719500	0.719500	0.719500	0.719500	0.719500	0.706600	0.719500	0.719500	0.719500	0.719500	0.719500	0.719500	0.719500	0.719500	0.719500	0.719500	0.719500	0.719500	0.719500	0.719500	0.719500	0.719500	0.719500	0.719500	0.719500	0.719500	0.719500	0.719500	0.719500	0.719500	0.719500	0.719500	0.719500	0.719500	0.719500	0.719600	0.719600	0.719600
-40.000000	0.691000	0.691000	0.691000	0.691000	0.691000	0.691000	0.678600	0.691000	0.691000	0.691000	0.691000	0.691000	0.691000	0.691000	0.691000	0.691000	0.691000	0.691000	0.691000	0.691000	0.691000	0.691000	0.691000	0.691000	0.691000	0.691000	0.691000	0.691000	0.691000	0.691000	0.691000	0.691000	0.691000	0.691000	0.691000	0.691000	0.691100	0.691100	0.691100
-39.000000	0.662700	0.662700	0.662700	0.662700	0.662700	0.662700	0.650800	0.662700	0.662700	0.662700	0.662700	0.662700	0.662700	0.662700	0.662700	0.662700	0.662700	0.662700	0.662700	0.662700	0.662700	0.662700	0.662700	0.662700	0.662700	0.662700	0.662700	0.662700	0.662700	0.662700	0.662700	0.662700	0.662700	0.662700	0.662700	0.662700	0.662800	0.662800	0.662800
-38.000000	0.634600	0.634600	0.634600	0.634600	0.634600	0.634600	0.623200	0.634600	0.634600	0.634600	0.634600	0.634600	0.634600	0.634600	0.634600	0.634600	0.634600	0.634600	0.634600	0.634600	0.634600	0.634600	0.634600	0.634600	0.634600	0.634600	0.634600	0.634600	0.634600	0.634600	0.634600	0.634600	0.634600	0.634600	0.634600	0.634600	0.634700	0.634700	0.634700
-37.000000	0.606700	0.606700	0.606700	0.606700	0.606700	0.606700	0.595800	0.606700	0.606700	0.606700	0.606700	0.606700	0.606700	0.606700	0.606700	0.606700	0.606700	0.606700	0.606700	0.606700	0.606700	0.606700	0.606700	0.606700	0.606700	0.606700	0.606700	0.606700	0.606700	0.606700	0.606700	0.606700	0.606700	0.606700	0.606700	0.606700	0.606800	0.606800	0.606800
-36.000000	0.579000	0.579000	0.579000	0.579100	0.579100	0.579100	0.568700	0.579100	0.579100	0.579100	0.579100	0.579100	0.579100	0.579100	0.579100	0.579100	0.579100	0.579100	0.579100	0.579100	0.579100	0.579100	0.579100	0.579100	0.579100	0.579100	0.579100	0.579100	0.579100	0.579100	0.579100	0.579100	0.579100	0.579100	0.579100	0.579100	0.579200	0.579200	0.579200
-35.000000	0.551700	0.551700	0.551700	0.551700	0.551700	0.551700	0.541900	0.551700	0.551700	0.551700	0.551700	0.551700	0.551700	0.551700	0.551700	0.551700	0.551700	0.551700	0.551700	0.551700	0.551700	0.551700	0.551700	0.551700	0.551700	0.551700	0.551700	0.551700	0.551700	0.551700	0.551700	0.551700	0.551700	0.551700	0.551700	0.551700	0.551900	0.551900	0.551900
-34.000000	0.524700	0.524700	0.524700	0.524700	0.524700	0.524700	0.515400	0.524800	0.524800	0.524800	0.524800	0.524800	0.524800	0.524800	0.524800	0.524800	0.524800	0.524800	0.524800	0.524800	0.524800	0.524800	0.524800	0.524800	0.524800	0.524800	0.524800	0.524800	0.524800	0.524800	0.524800	0.524800	0.524800	0.524800	0.524800	0.524800	0.524900	0.524900	0.524900
-33.000000	0.498100	0.498100	0.498100	0.498100	0.498100	0.498100	0.489200	0.498100	0.498100	0.498100	0.498100	0.498100	0.498100	0.498100	0.498100	0.498100	0.498100	0.498100	0.498100	0.498100	0.498100	0.498100	0.498100	0.498100	0.498100	0.498100	0.498100	0.498100	0.498100	0.498100	0.498100	0.498100	0.498100	0.498100	0.498100	0.498100	0.498300	0.498300	0.498300
-32.000000	0.471900	0.471900	0.471900	0.471900	0.471900	0.471900	0.463500	0.471900	0.471900	0.471900	0.471900	0.471900	0.471900	0.471900	0.471900	0.471900	0.471900	0.471900	0.471900	0.471900	0.471900	0.471900	0.471900	0.471900	0.471900	0.471900	0.471900	0.471900	0.471900	0.471900	0.471900	0.471900	0.471900	0.471900	0.471900	0.471900	0.472100	0.472100	0.472100
-31.000000	0.446100	0.446100	0.446100	0.446100	0.446100	0.446100	0.438200	0.446100	0.446100	0.446100	0.446100	0.446100	0.446100	0.446100	0.446100	0.446100	0.446200	0.446200	0.446200	0.446200	0.446200	0.446200	0.446200	0.446200	0.446200	0.446200	0.446200	0.446200	0.446200	0.446200	0.446200	0.446200	0.446200	0.446200	0.446200	0.446200	0.446300	0.446300	0.446300
-30.000000	0.420800	0.420800	0.420800	0.420800	0.420800	0.420800	0.413300	0.420800	0.420800	0.420800	0.420800	0.420800	0.420800	0.420800	0.420800	0.420800	0.420800	0.420800	0.420800	0.420800	0.420800	0.420800	0.420800	0.420800	0.420800	0.420800	0.420800	0.420800	0.420800	0.420800	0.420800	0.420800	0.420800	0.420800	0.420800	0.420800	0.421000	0.421000	0.421000
-29.000000	0.396000	0.396000	0.396000	0.396000	0.396000	0.396000	0.389000	0.396000	0.396000	0.396000	0.396000	0.396000	0.396000	0.396000	0.396000	0.396000	0.396000	0.396000	0.396000	0.396000	0.396000	0.396000	0.396000	0.396000	0.396000	0.396000	0.396000	0.396000	0.396000	0.396000	0.396000	0.396000	0.396000	0.396000	0.396000	0.396000	0.396300	0.396300	0.396300
-28.000000	0.371600	0.371700	0.371700	0.371700	0.371700	0.371700	0.365100	0.371700	0.371700	0.371700	0.371700	0.371700	0.371700	0.371700	0.371700	0.371700	0.371700	0.371700	0.371700	0.371700	0.371700	0.371700	0.371700	0.371700	0.371700	0.371700	0.371700	0.371700	0.371700	0.371700	0.371700	0.371700	0.371700	0.371700	0.371700	0.371700	0.372000	0.372000	0.372000
-27.000000	0.347900	0.347900	0.347900	0.347900	0.347900	0.347900	0.341800	0.347900	0.347900	0.347900	0.347900	0.347900	0.347900	0.347900	0.347900	0.347900	0.347900	0.348000	0.348000	0.348000	0.348000	0.348000	0.348000	0.348000	0.348000	0.348000	0.348000	0.348000	0.348000	0.348000	0.348000	0.348000	0.348000	0.348000	0.348000	0.348000	0.348300	0.348300	0.348300
-26.000000	0.324700	0.324700	0.324700	0.324700	0.324700	0.324700	0.319000	0.324800	0.324800	0.324800	0.324800	0.324800	0.324800	0.324800	0.324800	0.324800	0.324800	0.324800	0.324800	0.324800	0.324800	0.324800	0.324800	0.324800	0.324800	0.324800	0.324800	0.324800	0.324800	0.324800	0.324800	0.324800	0.324800	0.324800	0.324800	0.324800	0.325100	0.325100	0.325100
-25.000000	0.302100	0.302100	0.302100	0.302100	0.302200	0.302200	0.296800	0.302200	0.302200	0.302200	0.302200	0.302200	0.302200	0.302200	0.302200	0.302200	0.302200	0.302200	0.302200	0.302200	0.302200	0.302200	0.302200	0.302200	0.302200	0.302200	0.302200	0.302200	0.302200	0.302200	0.302200	0.302200	0.302200	0.302200	0.302200	0.302200	0.302600	0.302600	0.302600
-24.000000	0.280100	0.280100	0.280200	0.280200	0.280200	0.280200	0.275300	0.280200	0.280200	0.280200	0.280200	0.280200	0.280200	0.280200	0.280200	0.280200	0.280200	0.280200	0.280200	0.280200	0.280200	0.280200	0.280200	0.280200	0.280200	0.280200	0.280200	0.280200	0.280200	0.280200	0.280200	0.280200	0.280200	0.280200	0.280200	0.280200	0.280700	0.280700	0.280700
-23.000000	0.258800	0.258800	0.258800	0.258800	0.258900	0.258900	0.254300	0.258900	0.258900	0.258900	0.258900	0.258900	0.258900	0.258900	0.258900	0.258900	0.258900	0.258900	0.258900	0.258900	0.258900	0.258900	0.258900	0.258900	0.258900	0.258900	0.258900	0.258900	0.258900	0.258900	0.258900	0.258900	0.258900	0.258900	0.258900	0.258900	0.259500	0.259500	0.259500
-22.000000	0.238000	0.238100	0.238100	0.238200	0.238200	0.238200	0.234000	0.238200	0.238200	0.238200	0.238200	0.238200	0.238200	0.238200	0.238200	0.238200	0.238200	0.238200	0.238200	0.238200	0.238300	0.238300	0.238300	0.238300	0.238300	0.238300	0.238300	0.238300	0.238300	0.238300	0.238300	0.238300	0.238300	0.238300	0.238300	0.238300	0.239000	0.239000	0.239000
-21.000000	0.218000	0.218100	0.218100	0.218100	0.218200	0.218200	0.214400	0.218200	0.218200	0.218200	0.218200	0.218200	0.218200	0.218200	0.218200	0.218200	0.218200	0.218200	0.218200	0.218200	0.218200	0.218200	0.218300	0.218300	0.218300	0.218300	0.218300	0.218300	0.218300	0.218300	0.218300	0.218300	0.218300	0.218300	0.218300	0.218300	0.219100	0.219100	0.219100
-20.000000	0.198600	0.198700	0.198700	0.198700	0.198800	0.198800	0.195300	0.198800	0.198800	0.198800	0.198900	0.198900	0.198900	0.198900	0.198900	0.198900	0.198900	0.198900	0.198900	0.198900	0.198900	0.198900	0.198900	0.198900	0.198900	0.198900	0.198900	0.198900	0.198900	0.198900	0.198900	0.198900	0.198900	0.198900	0.198900	0.198900	0.200000	0.200000	0.200000
-19.000000	0.179700	0.179900	0.179900	0.180000	0.180000	0.180100	0.176900	0.180100	0.180100	0.180100	0.180100	0.180100	0.180100	0.180200	0.180200	0.180200	0.180200	0.180200	0.180200	0.180200	0.180200	0.180200	0.180200	0.180200	0.180200	0.180200	0.180200	0.180200	0.180200	0.180200	0.180200	0.180200	0.180200	0.180200	0.180200	0.180200	0.181500	0.181500	0.181500
-18.000000	0.161400	0.161600	0.161700	0.161800	0.161800	0.161900	0.159100	0.161900	0.161900	0.162000	0.162000	0.162000	0.162000	0.162000	0.162000	0.162000	0.162000	0.162100	0.162100	0.162100	0.162100	0.162100	0.162100	0.162100	0.162100	0.162100	0.162100	0.162100	0.162100	0.162100	0.162100	0.162100	0.162100	0.162100	0.162100	0.162100	0.163800	0.163800	0.163800
-17.000000	0.143500	0.143700	0.143900	0.144000	0.144100	0.144100	0.141700	0.144200	0.144300	0.144300	0.144300	0.144300	0.144300	0.144300	0.144400	0.144400	0.144400	0.144400	0.144400	0.144400	0.144400	0.144400	0.144400	0.144400	0.144500	0.144500	0.144500	0.144500	0.144500	0.144500	0.144500	0.144500	0.144500	0.144500	0.144500	0.144500	0.146700	0.146700	0.146700
-16.000000	0.125600	0.126000	0.126300	0.126400	0.126500	0.126600	0.124500	0.126700	0.126800	0.126800	0.126900	0.126900	0.126900	0.126900	0.127000	0.127000	0.127000	0.127000	0.127000	0.127000	0.127100	0.127100	0.127100	0.127100	0.127100	0.127100	0.127100	0.127100	0.127100	0.127100	0.127100	0.127100	0.127100	0.127200	0.127200	0.127200	0.130000	0.130100	0.130100
-15.000000	0.107200	0.107900	0.108300	0.108500	0.108700	0.108900	0.107100	0.109000	0.109100	0.109200	0.109200	0.109300	0.109300	0.109400	0.109400	0.109400	0.109400	0.109500	0.109500	0.109500	0.109500	0.109600	0.109600	0.109600	0.109600	0.109600	0.109600	0.109600	0.109600	0.109700	0.109700	0.109700	0.109700	0.109700	0.109700	0.109700	0.113600	0.113600	0.113600
-14.000000	0.087400	0.088500	0.089100	0.089500	0.089800	0.090000	0.088700	0.090300	0.090500	0.090600	0.090600	0.090700	0.090800	0.090800	0.090900	0.090900	0.091000	0.091000	0.091100	0.091100	0.091100	0.091200	0.091200	0.091200	0.091200	0.091200	0.091300	0.091300	0.091300	0.091300	0.091300	0.091400	0.091400	0.091400	0.091400	0.091400	0.096300	0.096300	0.096400
-13.000000	0.064900	0.066500	0.067500	0.068100	0.068600	0.068900	0.068000	0.069400	0.069600	0.069800	0.069900	0.070000	0.070100	0.070200	0.070300	0.070300	0.070400	0.070500	0.070500	0.070600	0.070600	0.070700	0.070700	0.070800	0.070800	0.070800	0.070900	0.070900	0.070900	0.070900	0.071000	0.071000	0.071000	0.071000	0.071100	0.071100	0.076200	0.076200	0.076200
-12.000000	0.040600	0.042500	0.043600	0.044400	0.045000	0.045400	0.045000	0.046000	0.046200	0.046500	0.046600	0.046800	0.046900	0.047000	0.047100	0.047200	0.047300	0.047400	0.047500	0.047500	0.047600	0.047600	0.047700	0.047700	0.047800	0.047800	0.047900	0.047900	0.048000	0.048000	0.048000	0.048100	0.048100	0.048100	0.048200	0.048200	0.049300	0.049300	0.049400
-11.000000	0.022000	0.023100	0.023800	0.024300	0.024700	0.025000	0.024900	0.025400	0.025600	0.025800	0.025900	0.026000	0.026100	0.026200	0.026200	0.026300	0.026400	0.026400	0.026500	0.026600	0.026600	0.026600	0.026700	0.026700	0.026700	0.026800	0.026800	0.026800	0.026900	0.026900	0.026900	0.027000	0.027000	0.027000	0.027000	0.027100	0.022500	0.022500	0.022500
-10.000000	0.028500	0.025300	0.023900	0.021600	0.020200	0.019600	0.019200	0.018100	0.017400	0.016800	0.016400	0.016100	0.015800	0.015600	0.015400	0.015200	0.015000	0.014900	0.014800	0.014600	0.014500	0.014400	0.014400	0.016100	0.016100	0.016200	0.016200	0.013600	0.013500	0.013300	0.013200	0.013100	0.016200	0.012900	0.012800	0.012800	0.012700	0.012600	0.012500
-9.500000	0.026100	0.023500	0.021100	0.020000	0.018800	0.018000	0.017600	0.017300	0.016700	0.016200	0.015700	0.015400	0.015100	0.014900	0.014700	0.014500	0.014300	0.014200	0.014100	0.014000	0.013800	0.013700	0.013700	0.013600	0.013500	0.013400	0.013300	0.013150	0.013100	0.013000	0.012900	0.012800	0.012700	0.012600	0.012500	0.012400	0.012300	0.012300	0.012200
-9.000000	0.023700	0.021100	0.019600	0.018500	0.017800	0.017000	0.016400	0.016100	0.015900	0.015600	0.015200	0.014800	0.014600	0.014300	0.014100	0.013900	0.013700	0.013600	0.013500	0.013300	0.013200	0.013100	0.013100	0.013000	0.012900	0.012800	0.012700	0.012700	0.012600	0.012600	0.012400	0.012300	0.012300	0.012150	0.012200	0.012100	0.012000	0.011950	0.011900
-8.500000	0.021500	0.019400	0.018200	0.017300	0.016600	0.016100	0.015700	0.015200	0.014900	0.014600	0.014400	0.014200	0.014000	0.013900	0.013700	0.013500	0.013200	0.013100	0.013000	0.012800	0.012700	0.012600	0.012500	0.012400	0.012300	0.012200	0.012100	0.012100	0.012000	0.012000	0.011900	0.011800	0.011800	0.011700	0.011700	0.011700	0.011550	0.011600	0.011600
-8.000000	0.020700	0.018400	0.016900	0.016000	0.015400	0.015000	0.014700	0.014400	0.014100	0.013900	0.013700	0.013500	0.013300	0.013100	0.013000	0.012800	0.012700	0.012600	0.012500	0.012400	0.012300	0.012200	0.012100	0.012000	0.011900	0.011900	0.011800	0.011700	0.011600	0.011500	0.011500	0.011400	0.011300	0.011300	0.011200	0.011200	0.011100	0.011100	0.011000
-7.500000	0.020100	0.017800	0.016500	0.015500	0.014800	0.014300	0.013800	0.013500	0.013200	0.013000	0.012900	0.012700	0.012600	0.012500	0.012400	0.012200	0.012100	0.012000	0.011900	0.011900	0.011800	0.011700	0.011600	0.011500	0.011500	0.011400	0.011300	0.011300	0.011200	0.011200	0.011100	0.011100	0.011000	0.011000	0.010900	0.010900	0.010800	0.010800	0.010700
-7.000000	0.019500	0.017400	0.016100	0.015200	0.014500	0.014000	0.013500	0.013200	0.012800	0.012600	0.012300	0.012100	0.011900	0.011800	0.011700	0.011500	0.011400	0.011400	0.011300	0.011200	0.011100	0.011100	0.011000	0.010900	0.010900	0.010900	0.010800	0.010800	0.010700	0.010700	0.010600	0.010600	0.010600	0.010500	0.010500	0.010500	0.010400	0.010400	0.010300
-6.500000	0.019100	0.017000	0.015800	0.014900	0.014200	0.013700	0.013300	0.012900	0.012600	0.012400	0.012100	0.011900	0.011700	0.011600	0.011400	0.011300	0.011100	0.011000	0.010900	0.010800	0.010700	0.010600	0.010500	0.010500	0.010400	0.010300	0.010300	0.010200	0.010200	0.010200	0.010100	0.010100	0.010000	0.010000	0.009900	0.009900	0.009900	0.009800	0.009800
-6.000000	0.018700	0.016700	0.015500	0.014600	0.014000	0.013500	0.013100	0.012800	0.012500	0.012200	0.012000	0.011800	0.011600	0.011400	0.011300	0.011100	0.011000	0.010900	0.010800	0.010600	0.010500	0.010500	0.010400	0.010300	0.010200	0.010100	0.010100	0.010000	0.009900	0.009900	0.009800	0.009700	0.009700	0.009600	0.009600	0.009600	0.009500	0.009500	0.009400
-5.500000	0.018400	0.016400	0.015200	0.014400	0.013800	0.013300	0.012900	0.012600	0.012300	0.012000	0.011800	0.011600	0.011400	0.011300	0.011100	0.011000	0.010900	0.010700	0.010600	0.010500	0.010400	0.010300	0.010300	0.010200	0.010100	0.010000	0.010000	0.009900	0.009800	0.009800	0.009700	0.009600	0.009600	0.009500	0.009500	0.009400	0.009400	0.009300	0.009300
-5.000000	0.018100	0.016200	0.015000	0.014200	0.013600	0.013200	0.012800	0.012400	0.012200	0.011900	0.011700	0.011500	0.011300	0.011200	0.011000	0.010900	0.010800	0.010600	0.010500	0.010400	0.010300	0.010200	0.010200	0.010100	0.010000	0.009900	0.009900	0.009800	0.009700	0.009700	0.009600	0.009600	0.009500	0.009500	0.009400	0.009400	0.009300	0.009300	0.009200
-4.500000	0.017800	0.016000	0.014800	0.014100	0.013500	0.013000	0.012600	0.012300	0.012000	0.011800	0.011600	0.011400	0.011200	0.011100	0.010900	0.010800	0.010700	0.010500	0.010400	0.010300	0.010200	0.010200	0.010100	0.010000	0.009900	0.009900	0.009800	0.009700	0.009700	0.009600	0.009500	0.009500	0.009400	0.009400	0.009300	0.009300	0.009200	0.009200	0.009200
-4.000000	0.017600	0.015800	0.014700	0.013900	0.013300	0.012900	0.012500	0.012200	0.011900	0.011700	0.011500	0.011300	0.011100	0.011000	0.010800	0.010700	0.010600	0.010500	0.010400	0.010300	0.010200	0.010100	0.010000	0.009900	0.009900	0.009800	0.009700	0.009700	0.009600	0.009500	0.009500	0.009400	0.009400	0.009300	0.009300	0.009200	0.009200	0.009100	0.009100
-3.500000	0.017400	0.015600	0.014600	0.013800	0.013200	0.012800	0.012400	0.012100	0.011800	0.011600	0.011400	0.011200	0.011100	0.010900	0.010800	0.010600	0.010500	0.010400	0.010300	0.010200	0.010100	0.010000	0.010000	0.009900	0.009800	0.009700	0.009700	0.009600	0.009500	0.009500	0.009400	0.009400	0.009300	0.009300	0.009200	0.009200	0.009100	0.009100	0.009100
-3.000000	0.017300	0.015500	0.014500	0.013700	0.013200	0.012700	0.012400	0.012000	0.011800	0.011600	0.011300	0.011200	0.011000	0.010900	0.010700	0.010600	0.010500	0.010400	0.010300	0.010200	0.010100	0.010000	0.009900	0.009800	0.009800	0.009700	0.009600	0.009600	0.009500	0.009400	0.009400	0.009300	0.009300	0.009200	0.009200	0.009100	0.009100	0.009100	0.009000
-2.500000	0.017200	0.015400	0.014400	0.013700	0.013100	0.012700	0.012300	0.012000	0.011700	0.011500	0.011300	0.011100	0.011000	0.010800	0.010700	0.010500	0.010400	0.010300	0.010200	0.010100	0.010000	0.010000	0.009900	0.009800	0.009700	0.009700	0.009600	0.009500	0.009500	0.009400	0.009400	0.009300	0.009300	0.009200	0.009200	0.009100	0.009100	0.009000	0.009000
-2.000000	0.017100	0.015400	0.014300	0.013600	0.013100	0.012600	0.012300	0.012000	0.011700	0.011500	0.011300	0.011100	0.010900	0.010800	0.010600	0.010500	0.010400	0.010300	0.010200	0.010100	0.010000	0.009900	0.009900	0.009800	0.009700	0.009600	0.009600	0.009500	0.009500	0.009400	0.009300	0.009300	0.009200	0.009200	0.009100	0.009100	0.009100	0.009000	0.009000
-1.500000	0.017100	0.015300	0.014300	0.013600	0.013000	0.012600	0.012200	0.011900	0.011700	0.011500	0.011300	0.011100	0.010900	0.010800	0.010600	0.010500	0.010400	0.010300	0.010200	0.010100	0.010000	0.009900	0.009800	0.009800	0.009700	0.009600	0.009600	0.009500	0.009400	0.009400	0.009300	0.009300	0.009200	0.009200	0.009100	0.009100	0.009100	0.009000	0.009000
-1.000000	0.017000	0.015300	0.014300	0.013600	0.013000	0.012600	0.012200	0.011900	0.011700	0.011500	0.011300	0.011100	0.010900	0.010800	0.010600	0.010500	0.010400	0.010300	0.010200	0.010100	0.010000	0.009900	0.009800	0.009800	0.009700	0.009600	0.009600	0.009500	0.009500	0.009400	0.009300	0.009300	0.009200	0.009200	0.009100	0.009100	0.009100	0.009000	0.009000
-0.500000	0.017000	0.015300	0.014300	0.013600	0.013000	0.012600	0.012300	0.012000	0.011700	0.011500	0.011300	0.011100	0.010900	0.010800	0.010700	0.010500	0.010400	0.010300	0.010200	0.010100	0.010000	0.009900	0.009900	0.009800	0.009700	0.009600	0.009600	0.009500	0.009500	0.009400	0.009400	0.009300	0.009300	0.009200	0.009200	0.009100	0.009100	0.009000	0.009000
0.000000	0.017100	0.015400	0.014300	0.013600	0.013100	0.012600	0.012300	0.012000	0.011700	0.011500	0.011300	0.011100	0.011000	0.010800	0.010700	0.010600	0.010400	0.010300	0.010200	0.010100	0.010000	0.010000	0.009900	0.009800	0.009700	0.009700	0.009600	0.009500	0.009500	0.009400	0.009400	0.009300	0.009300	0.009200	0.009200	0.009100	0.009100	0.009100	0.009000
0.500000	0.017100	0.015400	0.014400	0.013700	0.013100	0.012700	0.012300	0.012000	0.011800	0.011500	0.011300	0.011200	0.011000	0.010900	0.010700	0.010600	0.010500	0.010400	0.010300	0.010200	0.010100	0.010000	0.009900	0.009800	0.009800	0.009700	0.009600	0.009600	0.009500	0.009500	0.009400	0.009400	0.009300	0.009300	0.009200	0.009200	0.009100	0.009100	0.009000
1.000000	0.017200	0.015500	0.014500	0.013700	0.013200	0.012800	0.012400	0.012100	0.011800	0.011600	0.011400	0.011200	0.011100	0.010900	0.010800	0.010600	0.010500	0.010400	0.010300	0.010200	0.010100	0.010100	0.010000	0.009900	0.009800	0.009800	0.009700	0.009600	0.009600	0.009500	0.009500	0.009400	0.009400	0.009300	0.009300	0.009200	0.009200	0.009100	0.009100
1.500000	0.017400	0.015600	0.014600	0.013800	0.013300	0.012800	0.012500	0.012200	0.011900	0.011700	0.011500	0.011300	0.011100	0.011000	0.010800	0.010700	0.010600	0.010500	0.010400	0.010300	0.010200	0.010100	0.010000	0.010000	0.009900	0.009800	0.009700	0.009700	0.009600	0.009600	0.009500	0.009500	0.009400	0.009400	0.009300	0.009300	0.009200	0.009200	0.009100
2.000000	0.017500	0.015700	0.014700	0.013900	0.013400	0.012900	0.012600	0.012300	0.012000	0.011800	0.011600	0.011400	0.011200	0.011100	0.010900	0.010800	0.010700	0.010600	0.010500	0.010400	0.010300	0.010200	0.010100	0.010000	0.010000	0.009900	0.009800	0.009800	0.009700	0.009600	0.009600	0.009500	0.009500	0.009400	0.009400	0.009300	0.009300	0.009200	0.009200
2.500000	0.017700	0.015900	0.014800	0.014100	0.013500	0.013100	0.012700	0.012400	0.012100	0.011900	0.011700	0.011500	0.011300	0.011100	0.011000	0.010900	0.010800	0.010600	0.010500	0.010400	0.010400	0.010300	0.010200	0.010100	0.010000	0.010000	0.009900	0.009800	0.009800	0.009700	0.009700	0.009600	0.009600	0.009500	0.009500	0.009400	0.009400	0.009300	0.009300
3.000000	0.017900	0.016100	0.015000	0.014200	0.013700	0.013200	0.012800	0.012500	0.012200	0.012000	0.011800	0.011600	0.011400	0.011300	0.011100	0.011000	0.010900	0.010700	0.010600	0.010500	0.010400	0.010400	0.010300	0.010200	0.010100	0.010100	0.010000	0.009900	0.009900	0.009800	0.009700	0.009700	0.009600	0.009600	0.009500	0.009500	0.009400	0.009400	0.009400
3.500000	0.018200	0.016300	0.015200	0.014400	0.013800	0.013400	0.013000	0.012600	0.012400	0.012100	0.011900	0.011700	0.011500	0.011400	0.011200	0.011100	0.011000	0.010900	0.010800	0.010700	0.010600	0.010500	0.010400	0.010300	0.010200	0.010200	0.010100	0.010000	0.010000	0.009900	0.009800	0.009800	0.009700	0.009700	0.009600	0.009600	0.009500	0.009500	0.009500
4.000000	0.018400	0.016600	0.015400	0.014600	0.014000	0.013500	0.013100	0.012800	0.012500	0.012300	0.012100	0.011900	0.011700	0.011500	0.011400	0.011200	0.011100	0.011000	0.010900	0.010800	0.010700	0.010600	0.010500	0.010400	0.010300	0.010300	0.010200	0.010100	0.010100	0.010000	0.010000	0.009900	0.009800	0.009800	0.009700	0.009700	0.009600	0.009600	0.009600
4.500000	0.018800	0.016800	0.015700	0.014800	0.014200	0.013700	0.013300	0.013000	0.012700	0.012400	0.012200	0.012000	0.011800	0.011700	0.011500	0.011400	0.011300	0.011100	0.011000	0.010900	0.010800	0.010700	0.010600	0.010600	0.010500	0.010400	0.010300	0.010300	0.010200	0.010100	0.010100	0.010000	0.010000	0.009900	0.009900	0.009800	0.009800	0.009700	0.009700
5.000000	0.019100	0.017100	0.015900	0.015100	0.014500	0.014000	0.013500	0.013200	0.012900	0.012600	0.012400	0.012200	0.012000	0.011800	0.011700	0.011500	0.011400	0.011300	0.011200	0.011100	0.011000	0.010900	0.010800	0.010700	0.010600	0.010500	0.010500	0.010400	0.010300	0.010300	0.010200	0.010200	0.010100	0.010000	0.010000	0.009900	0.009900	0.009800	0.009800
5.500000	0.019500	0.017500	0.016300	0.015400	0.014700	0.014200	0.013800	0.013400	0.013100	0.012800	0.012600	0.012400	0.012200	0.012000	0.011900	0.011700	0.011600	0.011500	0.011300	0.011200	0.011100	0.011000	0.010900	0.010900	0.010800	0.010700	0.010600	0.010600	0.010500	0.010400	0.010400	0.010300	0.010200	0.010200	0.010100	0.010100	0.010000	0.010000	0.009900
6.000000	0.020000	0.017900	0.016600	0.015700	0.015000	0.014500	0.014000	0.013700	0.013400	0.013100	0.012800	0.012600	0.012400	0.012200	0.012100	0.011900	0.011800	0.011700	0.011500	0.011400	0.011300	0.011200	0.011100	0.011000	0.010900	0.010900	0.010800	0.010700	0.010600	0.010600	0.010500	0.010500	0.010400	0.010300	0.010300	0.010200	0.010200	0.010100	0.010100
6.500000	0.020500	0.018300	0.017000	0.016100	0.015300	0.014800	0.014300	0.013900	0.013600	0.013300	0.013100	0.012900	0.012600	0.012500	0.012300	0.012100	0.012000	0.011900	0.011700	0.011600	0.011500	0.011400	0.011300	0.011200	0.011100	0.011100	0.011000	0.010900	0.010800	0.010800	0.010700	0.010600	0.010600	0.010500	0.010500	0.010400	0.010300	0.010300	0.010200
7.000000	0.021100	0.018900	0.017400	0.016400	0.015700	0.015100	0.014700	0.014300	0.013900	0.013600	0.013400	0.013100	0.012900	0.012700	0.012500	0.012400	0.012200	0.012100	0.012000	0.011800	0.011700	0.011600	0.011500	0.011400	0.011300	0.011300	0.011200	0.011100	0.011000	0.011000	0.010900	0.010800	0.010800	0.010700	0.010600	0.010600	0.010600	0.010600	0.010500
7.500000	0.021900	0.019400	0.017900	0.016900	0.016100	0.015500	0.015000	0.014600	0.014200	0.013900	0.013600	0.013400	0.013200	0.013000	0.012800	0.012600	0.012500	0.012300	0.012200	0.012100	0.012000	0.011900	0.011800	0.011700	0.011600	0.011600	0.011500	0.011500	0.011400	0.011400	0.011400	0.011400	0.011300	0.011300	0.011200	0.011200	0.011200	0.011100	0.011100
8.000000	0.022800	0.020100	0.018500	0.017400	0.016600	0.015900	0.015400	0.015000	0.014600	0.014300	0.014000	0.013700	0.013500	0.013300	0.013100	0.012900	0.012900	0.012800	0.012700	0.012600	0.012600	0.012500	0.012500	0.012400	0.012300	0.012300	0.012200	0.012200	0.012200	0.012100	0.012100	0.012000	0.012000	0.011900	0.011900	0.011900	0.011900	0.011800	0.011800
8.500000	0.023900	0.021000	0.019200	0.018000	0.017100	0.016400	0.015900	0.015400	0.015000	0.014600	0.014400	0.014300	0.014100	0.014000	0.013900	0.013800	0.013700	0.013600	0.013600	0.013500	0.013400	0.013300	0.013200	0.013200	0.013200	0.013100	0.013000	0.012900	0.012900	0.012800	0.012800	0.012700	0.012700	0.012600	0.012600	0.012500	0.012500	0.012400	0.012400
9.000000	0.025100	0.022100	0.020100	0.018700	0.017700	0.016900	0.016400	0.016100	0.015800	0.015700	0.015400	0.015300	0.015200	0.015000	0.014900	0.014800	0.014700	0.014600	0.014400	0.014300	0.014200	0.014100	0.014100	0.014000	0.013900	0.013800	0.013700	0.013600	0.013600	0.013500	0.013400	0.013300	0.013200	0.013200	0.013100	0.013100	0.013000	0.012900	0.012900
9.500000	0.026600	0.023400	0.021200	0.019700	0.018700	0.018100	0.017800	0.017300	0.017100	0.016800	0.016600	0.016500	0.016200	0.016000	0.015800	0.015700	0.015600	0.015400	0.015300	0.015100	0.015000	0.014900	0.014700	0.014600	0.014500	0.014400	0.014300	0.014200	0.014200	0.014100	0.014000	0.014000	0.013900	0.013800	0.013800	0.013700	0.013600	0.013600	0.013500
10.000000	0.028300	0.024900	0.022600	0.021500	0.020700	0.020200	0.019600	0.019300	0.018800	0.018400	0.018100	0.017800	0.017500	0.017200	0.016900	0.016700	0.016400	0.016200	0.016000	0.015900	0.015700	0.015600	0.015500	0.015400	0.015300	0.015200	0.015100	0.015000	0.014900	0.014800	0.014800	0.014700	0.014500	0.014500	0.014350	0.014300	0.014150	0.014167	0.014067
10.500000	0.030300	0.027200	0.025600	0.024400	0.023200	0.022600	0.021700	0.021100	0.020600	0.020300	0.019700	0.019200	0.018700	0.018400	0.018100	0.017800	0.017600	0.017400	0.017200	0.017000	0.016800	0.016700	0.016500	0.016400	0.016300	0.016100	0.016000	0.015900	0.015767	0.015750	0.015400	0.015300	0.015100	0.015000	0.014900	0.014800	0.014700	0.014733	0.014633
11.000000	0.033400	0.031000	0.028900	0.027300	0.025900	0.024700	0.024000	0.023500	0.022500	0.021800	0.021100	0.020600	0.020200	0.019900	0.019600	0.019300	0.019000	0.018800	0.018600	0.018400	0.018200	0.018000	0.017733	0.017500	0.017300	0.017100	0.016900	0.016800	0.016633	0.016700	0.016200	0.016000	0.015900	0.015800	0.015700	0.015500	0.015400	0.015300	0.015200
11.500000	0.038000	0.035200	0.032200	0.030400	0.028500	0.027600	0.026700	0.025400	0.024400	0.023600	0.023000	0.022500	0.022100	0.021700	0.021400	0.021100	0.020800	0.020500	0.020100	0.019800	0.019500	0.019100	0.018967	0.018600	0.018300	0.018100	0.017900	0.017700	0.017500	0.017650	0.017200	0.017000	0.016900	0.016700	0.016600	0.016500	0.016300	0.016200	0.016100
12.000000	0.042500	0.038800	0.036600	0.033300	0.031900	0.030700	0.028900	0.027600	0.026600	0.025800	0.025200	0.024800	0.024400	0.024100	0.023600	0.023000	0.022500	0.022000	0.021600	0.021200	0.020800	0.020500	0.020200	0.019900	0.019600	0.019400	0.019100	0.018900	0.018700	0.018600	0.018400	0.018200	0.018100	0.017900	0.017800	0.017700	0.017600	0.017500	0.017400
12.500000	0.046400	0.042800	0.039800	0.037000	0.035900	0.033400	0.031500	0.030300	0.029300	0.028600	0.028300	0.027800	0.026900	0.026000	0.025300	0.024700	0.024100	0.023600	0.023200	0.022800	0.022400	0.022000	0.021700	0.021500	0.021200	0.021000	0.020700	0.020500	0.020400	0.020200	0.020000	0.019900	0.019800	0.019700	0.019600	0.019500	0.019400	0.019300	0.019100
13.000000	0.050400	0.047800	0.043500	0.042200	0.039000	0.036500	0.034700	0.033500	0.033000	0.032700	0.031200	0.030000	0.029000	0.028100	0.027400	0.026700	0.026100	0.025600	0.025200	0.024800	0.024400	0.024100	0.023800	0.023500	0.023300	0.023100	0.023000	0.022800	0.022700	0.022600	0.022500	0.022400	0.022300	0.021733	0.021800	0.021350	0.021200	0.021100	0.020800
13.500000	0.053900	0.051700	0.048100	0.046200	0.042700	0.040100	0.038600	0.038500	0.037400	0.035300	0.033800	0.032600	0.031500	0.030600	0.029900	0.029200	0.028600	0.028100	0.027600	0.027300	0.027000	0.026700	0.026400	0.026200	0.026000	0.025800	0.025600	0.025400	0.025300	0.025000	0.024733	0.024500	0.024250	0.023767	0.023500	0.023200	0.023000	0.022700	0.022500
14.000000	0.057800	0.055800	0.054100	0.050200	0.046900	0.044400	0.044000	0.043100	0.040600	0.038500	0.036900	0.035500	0.034400	0.033500	0.032800	0.032000	0.031400	0.030900	0.030500	0.030200	0.029900	0.029600	0.029400	0.029100	0.028900	0.028700	0.028600	0.028100	0.027800	0.027400	0.026967	0.026600	0.026200	0.025800	0.025500	0.025200	0.024900	0.024700	0.024500
14.500000	0.061900	0.060300	0.058600	0.054900	0.051500	0.049900	0.050300	0.047000	0.044200	0.042100	0.040400	0.038900	0.037800	0.036900	0.036000	0.035300	0.034700	0.034200	0.033800	0.033500	0.033200	0.032900	0.032700	0.032500	0.032400	0.032000	0.031450	0.030800	0.030100	0.029700	0.029200	0.028800	0.028400	0.028000	0.027700	0.027400	0.027100	0.026900	0.026600
15.000000	0.066200	0.065100	0.063100	0.059800	0.056700	0.056400	0.054700	0.051200	0.048400	0.046200	0.044300	0.042800	0.041600	0.040600	0.039600	0.038900	0.038400	0.037900	0.037600	0.037200	0.037000	0.036800	0.036700	0.036300	0.035400	0.034500	0.034300	0.033500	0.032700	0.032200	0.031700	0.031200	0.030800	0.030500	0.030200	0.029900	0.029600	0.029300	0.029000
15.500000	0.071300	0.070000	0.067900	0.064900	0.062700	0.063200	0.059400	0.055700	0.053100	0.050600	0.048600	0.047100	0.045800	0.044500	0.043700	0.043000	0.042500	0.042100	0.041800	0.041600	0.041500	0.041500	0.040300	0.039100	0.038200	0.037500	0.037150	0.036200	0.035600	0.035000	0.034500	0.034100	0.033700	0.033300	0.033000	0.032700	0.032300	0.032000	0.031700
16.000000	0.077300	0.075200	0.073100	0.070600	0.069300	0.068300	0.064200	0.060900	0.058000	0.055400	0.053400	0.051700	0.050100	0.049100	0.048300	0.047800	0.047300	0.047000	0.046900	0.046900	0.046100	0.044600	0.043300	0.042400	0.041500	0.040700	0.040000	0.039200	0.038600	0.038100	0.037700	0.037200	0.036800	0.036400	0.036000	0.035600	0.035200	0.034800	0.034400
16.500000	0.084600	0.080900	0.078500	0.076400	0.076100	0.073400	0.069800	0.066400	0.063200	0.060800	0.058600	0.056500	0.055200	0.054300	0.053600	0.053200	0.052900	0.052900	0.053000	0.051200	0.049400	0.048100	0.047000	0.046000	0.045000	0.044000	0.043300	0.042700	0.042200	0.041700	0.041200	0.040700	0.040200	0.039700	0.039100	0.038700	0.038300	0.038000	0.037700
17.000000	0.093400	0.087600	0.084700	0.082800	0.082700	0.079200	0.075600	0.072000	0.069100	0.066400	0.063800	0.062100	0.060900	0.060100	0.059700	0.059500	0.059800	0.059000	0.056500	0.054800	0.053400	0.052100	0.050700	0.049600	0.048800	0.048000	0.047300	0.046700	0.046100	0.045500	0.044700	0.044000	0.043600	0.043100	0.042700	0.042400	0.042000	0.041700	0.041300
17.500000	0.104300	0.095400	0.091100	0.089700	0.088500	0.084900	0.081600	0.078400	0.075300	0.072100	0.069900	0.068400	0.067400	0.067000	0.067000	0.067700	0.065500	0.062800	0.060900	0.059200	0.057400	0.055900	0.054900	0.054000	0.053200	0.052400	0.051500	0.050600	0.049800	0.049200	0.048700	0.048200	0.047700	0.047300	0.046800	0.046400	0.046000	0.045600	0.045200
18.000000	0.118800	0.104400	0.098400	0.098400	0.095100	0.091600	0.088300	0.085000	0.081400	0.078700	0.076700	0.075500	0.075000	0.075400	0.075800	0.072300	0.069900	0.067700	0.065400	0.063300	0.062000	0.060800	0.059700	0.058700	0.057400	0.056400	0.055700	0.055000	0.054400	0.053800	0.053200	0.052700	0.052200	0.051700	0.051100	0.050400	0.049900	0.049600	0.049200
18.500000	0.193000	0.115100	0.106400	0.106900	0.102300	0.098800	0.095200	0.091600	0.088500	0.086000	0.084400	0.083900	0.085000	0.084000	0.080300	0.077600	0.074900	0.072000	0.070200	0.068700	0.067300	0.065800	0.064100	0.063200	0.062300	0.061500	0.060700	0.060000	0.059300	0.058600	0.057800	0.057000	0.056500	0.056000	0.055600	0.055300	0.055000	0.054600	0.054400
19.000000	0.163800	0.128300	0.115100	0.114900	0.109700	0.106000	0.102600	0.099200	0.096200	0.094000	0.093600	0.096800	0.092700	0.089200	0.086100	0.082300	0.079800	0.077700	0.075800	0.073600	0.072000	0.070800	0.069800	0.068800	0.067900	0.066900	0.065900	0.064700	0.064000	0.063500	0.063000	0.062500	0.062100	0.061700	0.061300	0.061000	0.060700	0.060400	0.060100
19.500000	0.178950	0.147100	0.126700	0.123900	0.118200	0.114300	0.110700	0.107300	0.104600	0.104300	0.106800	0.102300	0.098900	0.095300	0.091100	0.088200	0.085800	0.082900	0.081000	0.079500	0.078200	0.077000	0.075700	0.074300	0.073000	0.072200	0.071500	0.070800	0.070300	0.069800	0.069300	0.068900	0.068500	0.068100	0.067700	0.067400	0.067000	0.066600	0.068400
20.000000	0.194100	0.147800	0.144600	0.134400	0.127500	0.123000	0.119100	0.115900	0.115600	0.117600	0.113000	0.109200	0.105200	0.100800	0.097700	0.094500	0.091400	0.089400	0.087800	0.086200	0.084500	0.082600	0.081500	0.080600	0.079700	0.079000	0.078400	0.077800	0.077300	0.076800	0.076300	0.075900	0.075700	0.107100	0.106400	0.077000	0.106800	0.106600	0.073800
20.500000	0.205750	0.159250	0.154050	0.145050	0.139850	0.136000	0.131200	0.130100	0.129050	0.133200	0.130800	0.127000	0.124900	0.120700	0.117800	0.120350	0.112850	0.111300	0.111250	0.110100	0.107300	0.105650	0.104950	0.104200	0.104850	0.104200	0.104250	0.104150	0.102950	0.104600	0.103950	0.103350	0.103400	0.118950	0.118050	0.103250	0.118750	0.118600	0.103500
21.000000	0.217400	0.170700	0.163500	0.155700	0.152200	0.149000	0.143300	0.144300	0.142500	0.148800	0.148600	0.144800	0.144600	0.140600	0.137900	0.146200	0.134300	0.133200	0.134700	0.134000	0.130100	0.128700	0.128400	0.127800	0.130000	0.129400	0.130100	0.130500	0.128600	0.132400	0.131600	0.130800	0.131100	0.130800	0.129700	0.129500	0.130700	0.130600	0.133200
21.500000	0.228200	0.182550	0.175000	0.166300	0.162700	0.159250	0.153200	0.154350	0.152600	0.160200	0.159950	0.155750	0.155500	0.151050	0.149850	0.158200	0.146450	0.145350	0.146800	0.146250	0.142300	0.140800	0.140750	0.140150	0.142300	0.141750	0.142750	0.143450	0.141100	0.145200	0.144250	0.143350	0.143750	0.143500	0.142150	0.141950	0.143550	0.143400	0.145950
22.000000	0.239000	0.194400	0.186500	0.176900	0.173200	0.169500	0.163100	0.164400	0.162700	0.171600	0.171300	0.166700	0.166400	0.161500	0.161800	0.170200	0.158600	0.157500	0.158900	0.158500	0.154500	0.152900	0.153100	0.152500	0.154600	0.154100	0.155400	0.156400	0.153600	0.158000	0.156900	0.155900	0.156400	0.156200	0.154600	0.154400	0.156400	0.156200	0.158700
22.500000	0.249750	0.206550	0.198450	0.188000	0.184250	0.180350	0.173550	0.175000	0.173350	0.183500	0.183200	0.178250	0.177950	0.172650	0.174350	0.182750	0.171350	0.170250	0.171650	0.171350	0.167350	0.165700	0.166100	0.165550	0.167600	0.167100	0.168700	0.169900	0.166700	0.171300	0.170150	0.169100	0.169700	0.169450	0.167700	0.167500	0.169800	0.169600	0.172000
23.000000	0.260500	0.218700	0.210400	0.199100	0.195300	0.191200	0.184000	0.185600	0.184000	0.195400	0.195100	0.189800	0.189500	0.183800	0.186900	0.195300	0.184100	0.183000	0.184400	0.184200	0.180200	0.178500	0.179100	0.178600	0.180600	0.180100	0.182000	0.183400	0.179800	0.184600	0.183400	0.182300	0.183000	0.182700	0.180800	0.180600	0.183200	0.183000	0.185300
23.500000	0.271450	0.231050	0.222650	0.210650	0.206800	0.202500	0.195000	0.196800	0.195250	0.207750	0.207400	0.201850	0.201500	0.195450	0.199850	0.208200	0.197250	0.196250	0.197550	0.197500	0.193550	0.191800	0.192600	0.192100	0.194000	0.193550	0.195750	0.197300	0.193400	0.198350	0.197100	0.195900	0.196650	0.196400	0.194350	0.194150	0.197000	0.196850	0.199000
24.000000	0.282400	0.243400	0.234900	0.222200	0.218300	0.213800	0.206000	0.208000	0.206500	0.220100	0.219700	0.213900	0.213500	0.207100	0.212800	0.221100	0.210400	0.209500	0.210700	0.210800	0.206900	0.205100	0.206100	0.205600	0.207400	0.207000	0.209500	0.211200	0.207000	0.212100	0.210800	0.209500	0.210300	0.210100	0.207900	0.207700	0.210800	0.210700	0.212700
24.500000	0.293550	0.256050	0.247450	0.234200	0.230300	0.225600	0.217450	0.219700	0.218200	0.232800	0.232450	0.226400	0.225950	0.219250	0.226150	0.234300	0.223950	0.223050	0.224250	0.224400	0.220600	0.218800	0.219950	0.219500	0.221200	0.220800	0.223500	0.225400	0.220900	0.226100	0.224750	0.223400	0.224300	0.224100	0.221800	0.221600	0.224850	0.224750	0.226650
25.000000	0.304700	0.268700	0.260000	0.246200	0.242300	0.237400	0.228900	0.231400	0.229900	0.245500	0.245200	0.238900	0.238400	0.231400	0.239500	0.247500	0.237500	0.236600	0.237800	0.238000	0.234300	0.232500	0.233800	0.233400	0.235000	0.234600	0.237500	0.239600	0.234800	0.240100	0.238700	0.237300	0.238300	0.238100	0.235700	0.235500	0.238900	0.238800	0.240600
25.500000	0.316150	0.281500	0.272850	0.258600	0.254700	0.249650	0.240800	0.243550	0.242100	0.258550	0.258200	0.251750	0.251250	0.244000	0.253100	0.260950	0.251300	0.250450	0.251600	0.251900	0.248300	0.246500	0.247900	0.247500	0.249050	0.248700	0.251700	0.253900	0.248950	0.254250	0.252800	0.251400	0.252450	0.252300	0.249800	0.249650	0.253150	0.253050	0.254750
26.000000	0.327600	0.294300	0.285700	0.271000	0.267100	0.261900	0.252700	0.255700	0.254300	0.271600	0.271200	0.264600	0.264100	0.256600	0.266700	0.274400	0.265100	0.264300	0.265400	0.265800	0.262300	0.260500	0.262000	0.261600	0.263100	0.262800	0.265900	0.268200	0.263100	0.268400	0.266900	0.265500	0.266600	0.266500	0.263900	0.263800	0.267400	0.267300	0.268900
26.500000	0.339350	0.307350	0.298800	0.283750	0.279850	0.274550	0.265050	0.268300	0.266950	0.284950	0.284500	0.277800	0.277300	0.269550	0.280550	0.288000	0.279100	0.278350	0.279400	0.279850	0.276450	0.274650	0.276300	0.275900	0.277300	0.277000	0.280250	0.282600	0.277450	0.282700	0.281200	0.279800	0.280900	0.280800	0.278150	0.278050	0.281750	0.281650	0.283150
27.000000	0.351100	0.320400	0.311900	0.296500	0.292600	0.287200	0.277400	0.280900	0.279600	0.298300	0.297800	0.291000	0.290500	0.282500	0.294400	0.301600	0.293100	0.292400	0.293400	0.293900	0.290600	0.288800	0.290600	0.290200	0.291500	0.291200	0.294600	0.297000	0.291800	0.297000	0.295500	0.294100	0.295200	0.295100	0.292400	0.292300	0.296100	0.296000	0.297400
27.500000	0.363150	0.333600	0.325200	0.309550	0.305650	0.300150	0.290100	0.293800	0.292600	0.311850	0.311350	0.304450	0.303950	0.295800	0.308450	0.315450	0.307300	0.306650	0.307550	0.308100	0.304950	0.303150	0.305000	0.304650	0.305850	0.305600	0.309050	0.311450	0.306200	0.311350	0.309900	0.308450	0.309600	0.309500	0.306800	0.306700	0.310550	0.310450	0.311750
28.000000	0.375200	0.346800	0.338500	0.322600	0.318700	0.313100	0.302800	0.306700	0.305600	0.325400	0.324900	0.317900	0.317400	0.309100	0.322500	0.329300	0.321500	0.320900	0.321700	0.322300	0.319300	0.317500	0.319400	0.319100	0.320200	0.320000	0.323500	0.325900	0.320600	0.325700	0.324300	0.322800	0.324000	0.323900	0.321200	0.321100	0.325000	0.324900	0.326100
28.500000	0.387550	0.360200	0.352000	0.335950	0.332100	0.326450	0.315800	0.320000	0.318900	0.339150	0.338700	0.331650	0.331150	0.322750	0.336650	0.343300	0.335800	0.335250	0.336000	0.336650	0.333750	0.332000	0.333900	0.333650	0.334700	0.334500	0.338000	0.340450	0.335150	0.340150	0.338750	0.337300	0.338500	0.338400	0.335700	0.335650	0.339500	0.339400	0.340550
29.000000	0.399900	0.373600	0.365500	0.349300	0.345500	0.339800	0.328800	0.333300	0.332200	0.352900	0.352500	0.345400	0.344900	0.336400	0.350800	0.357300	0.350100	0.349600	0.350300	0.351000	0.348200	0.346500	0.348400	0.348200	0.349200	0.349000	0.352500	0.355000	0.349700	0.354600	0.353200	0.351800	0.353000	0.352900	0.350200	0.350200	0.354000	0.353900	0.355000
29.500000	0.412450	0.387200	0.379200	0.362900	0.359100	0.353350	0.342100	0.346900	0.345850	0.366900	0.366450	0.359350	0.358850	0.350300	0.365150	0.371400	0.364550	0.364050	0.364750	0.365450	0.362750	0.361100	0.363050	0.362800	0.363750	0.363550	0.367100	0.369550	0.364300	0.369150	0.367750	0.366350	0.367550	0.367450	0.364800	0.364750	0.368550	0.368500	0.369500
30.000000	0.425000	0.400800	0.392900	0.376500	0.372700	0.366900	0.355400	0.360500	0.359500	0.380900	0.380400	0.373300	0.372800	0.364200	0.379500	0.385500	0.379000	0.378500	0.379200	0.379900	0.377300	0.375700	0.377700	0.377400	0.378300	0.378100	0.381700	0.384100	0.378900	0.383700	0.382300	0.380900	0.382100	0.382000	0.379400	0.379300	0.383100	0.383100	0.384000
31.000000	0.450700	0.428200	0.420600	0.404200	0.400500	0.394700	0.382600	0.388200	0.387300	0.409200	0.408800	0.401700	0.401100	0.392400	0.408400	0.414100	0.408100	0.407700	0.408200	0.409000	0.406600	0.405000	0.407100	0.406900	0.407700	0.407500	0.411000	0.413400	0.408300	0.412800	0.411500	0.410200	0.411400	0.411300	0.408700	0.408700	0.412400	0.412400	0.413200
32.000000	0.476900	0.456000	0.448700	0.432300	0.428700	0.422800	0.410300	0.416500	0.415700	0.437800	0.437400	0.430400	0.429900	0.421100	0.437500	0.442800	0.437400	0.437000	0.437500	0.438300	0.436100	0.434600	0.436600	0.436500	0.437100	0.437000	0.440400	0.442800	0.437900	0.442200	0.440900	0.439600	0.440800	0.440700	0.438200	0.438200	0.441800	0.441800	0.442400
33.000000	0.503500	0.484100	0.477000	0.460900	0.457300	0.451500	0.438400	0.445100	0.444500	0.466800	0.466300	0.459400	0.458900	0.450200	0.466900	0.471800	0.466900	0.466500	0.467000	0.467800	0.465700	0.464300	0.466300	0.466200	0.466800	0.466700	0.470000	0.472200	0.467500	0.471600	0.470400	0.469200	0.470300	0.470200	0.467900	0.467800	0.471300	0.471300	0.471900
34.000000	0.530500	0.512500	0.505700	0.489700	0.486300	0.480500	0.467000	0.474200	0.473600	0.496000	0.495500	0.488800	0.488200	0.479600	0.496400	0.501100	0.496500	0.496200	0.496600	0.497500	0.495600	0.494200	0.496200	0.496100	0.496600	0.496500	0.499700	0.501900	0.497300	0.501200	0.500000	0.498900	0.500000	0.499900	0.497600	0.497600	0.501000	0.500900	0.501400
35.000000	0.557900	0.541200	0.534700	0.518900	0.515600	0.509800	0.495800	0.503700	0.503200	0.525400	0.525000	0.518400	0.517900	0.509300	0.526200	0.530500	0.526300	0.526100	0.526400	0.527300	0.525500	0.524200	0.526200	0.526100	0.526500	0.526400	0.529500	0.531600	0.527300	0.530900	0.529800	0.528700	0.529800	0.529700	0.527500	0.527500	0.530700	0.530700	0.531100
36.000000	0.585700	0.570100	0.563800	0.548400	0.545200	0.539500	0.525000	0.533400	0.533000	0.555100	0.554700	0.548200	0.547700	0.539300	0.556100	0.560100	0.556300	0.556100	0.556400	0.557200	0.555600	0.554400	0.556300	0.556200	0.556600	0.556500	0.559500	0.561500	0.557300	0.560800	0.559700	0.558700	0.559700	0.559700	0.557600	0.557500	0.560600	0.560600	0.561000
37.000000	0.613800	0.599200	0.593200	0.578200	0.575000	0.569400	0.554500	0.563500	0.563100	0.584900	0.584500	0.578300	0.577800	0.569500	0.586100	0.589900	0.586400	0.586300	0.586500	0.587300	0.585800	0.584700	0.586500	0.586400	0.586700	0.586700	0.589500	0.591500	0.587500	0.590800	0.589800	0.588800	0.589700	0.589700	0.587700	0.587700	0.590600	0.590600	0.590900
38.000000	0.642200	0.628500	0.622800	0.608100	0.605100	0.599500	0.584200	0.593800	0.593400	0.615000	0.614600	0.608500	0.608000	0.599900	0.616300	0.619900	0.616700	0.616500	0.616700	0.617500	0.616100	0.615000	0.616800	0.616700	0.617000	0.617000	0.619700	0.621500	0.617800	0.620900	0.619900	0.619000	0.619900	0.619900	0.618000	0.618000	0.620700	0.620700	0.621000
39.000000	0.670800	0.658000	0.652600	0.638200	0.635300	0.629900	0.614000	0.624200	0.624000	0.645100	0.644700	0.638900	0.638400	0.630500	0.646600	0.649900	0.647000	0.646900	0.647100	0.647800	0.646500	0.645500	0.647200	0.647100	0.647400	0.647400	0.650000	0.651700	0.648100	0.651100	0.650200	0.649200	0.650100	0.650100	0.648300	0.648300	0.651000	0.650900	0.651200
40.000000	0.699700	0.687700	0.682500	0.668500	0.665700	0.660300	0.644100	0.654900	0.654600	0.675400	0.675000	0.669300	0.668900	0.661200	0.677000	0.680100	0.677400	0.677300	0.677500	0.678200	0.677000	0.676000	0.677700	0.677600	0.677800	0.677800	0.680300	0.681900	0.678600	0.681300	0.680500	0.679600	0.680400	0.680400	0.678700	0.678700	0.681200	0.681200	0.681400
41.000000	0.728700	0.717500	0.712500	0.698900	0.696200	0.691000	0.674300	0.685600	0.685400	0.705800	0.705400	0.699900	0.699500	0.692000	0.707400	0.710400	0.707900	0.707800	0.707900	0.708600	0.707500	0.706600	0.708200	0.708100	0.708300	0.708300	0.710700	0.712200	0.709000	0.711600	0.710800	0.710000	0.710800	0.710800	0.709200	0.709200	0.711600	0.711600	0.711700
42.000000	0.757900	0.747300	0.742600	0.729400	0.726800	0.721700	0.704500	0.716500	0.716300	0.736200	0.735900	0.730500	0.730100	0.722800	0.737900	0.740700	0.738400	0.738300	0.738400	0.739100	0.738100	0.737200	0.738700	0.738700	0.738800	0.738800	0.741100	0.742600	0.739500	0.742000	0.741200	0.740400	0.741200	0.741200	0.739600	0.739600	0.741900	0.741900	0.742100
43.000000	0.787200	0.777300	0.772700	0.759900	0.757400	0.752400	0.734800	0.747400	0.747300	0.766700	0.766300	0.761200	0.760800	0.753700	0.768400	0.771000	0.768900	0.768800	0.768900	0.769600	0.768600	0.767800	0.769200	0.769200	0.769400	0.769300	0.771500	0.772900	0.770000	0.772300	0.771600	0.770900	0.771600	0.771600	0.770100	0.770100	0.772300	0.772300	0.772400
44.000000	0.816600	0.807200	0.802900	0.790500	0.788100	0.783200	0.765200	0.778300	0.778200	0.797100	0.796800	0.791900	0.791400	0.784600	0.798900	0.801300	0.799400	0.799300	0.799400	0.800000	0.799100	0.798400	0.799800	0.799700	0.799900	0.799800	0.801900	0.803300	0.800500	0.802700	0.802000	0.801300	0.802000	0.802000	0.800600	0.800600	0.802700	0.802700	0.802800
45.000000	0.846000	0.837200	0.833000	0.821000	0.818700	0.814000	0.795500	0.809200	0.809200	0.827600	0.827300	0.822500	0.822100	0.815400	0.829400	0.831600	0.829800	0.829800	0.829900	0.830500	0.829600	0.828900	0.830200	0.830200	0.830300	0.830300	0.832300	0.833600	0.830900	0.833000	0.832400	0.831700	0.832300	0.832300	0.831000	0.831000	0.833000	0.833000	0.833100
46.000000	0.875400	0.867100	0.863200	0.851500	0.849300	0.844700	0.825800	0.840100	0.840000	0.858000	0.857700	0.853100	0.852700	0.846200	0.859700	0.861900	0.860200	0.860100	0.860200	0.860800	0.860000	0.859300	0.860600	0.860600	0.860700	0.860700	0.862600	0.863800	0.861300	0.863200	0.862600	0.862000	0.862600	0.862600	0.861400	0.861400	0.863200	0.863200	0.863300
47.000000	0.904800	0.896900	0.893200	0.881900	0.879800	0.875300	0.855900	0.870800	0.870800	0.888200	0.888000	0.883500	0.883100	0.876900	0.890000	0.892000	0.890500	0.890400	0.890500	0.891100	0.890300	0.889700	0.890900	0.890900	0.891000	0.891000	0.892700	0.893900	0.891500	0.893400	0.892800	0.892200	0.892800	0.892800	0.891600	0.891600	0.893400	0.893400	0.893500
48.000000	0.934100	0.926700	0.923100	0.912200	0.910200	0.905800	0.886000	0.901500	0.901500	0.918400	0.918100	0.913900	0.913500	0.907500	0.920200	0.922100	0.920600	0.920600	0.920600	0.921200	0.920500	0.919900	0.921000	0.921000	0.921100	0.921100	0.922800	0.923900	0.921700	0.923400	0.922900	0.922300	0.922900	0.922900	0.921700	0.921700	0.923400	0.923400	0.923500
49.000000	0.963300	0.956300	0.952900	0.942400	0.940400	0.936100	0.915900	0.932000	0.932000	0.948400	0.948200	0.944000	0.943700	0.937900	0.950200	0.952000	0.950600	0.950600	0.950600	0.951200	0.950500	0.949900	0.951000	0.951000	0.951100	0.951100	0.952700	0.953800	0.951600	0.953300	0.952800	0.952200	0.952800	0.952800	0.951700	0.951700	0.953300	0.953300	0.953300
50.000000	0.992400	0.985800	0.982500	0.972400	0.970400	0.966300	0.945700	0.962300	0.962300	0.978300	0.978000	0.974000	0.973700	0.968100	0.980000	0.981700	0.980400	0.980400	0.980400	0.980900	0.980300	0.979800	0.980800	0.980800	0.980900	0.980900	0.982400	0.983400	0.981400	0.983000	0.982500	0.982000	0.982500	0.982500	0.981400	0.981400	0.983000	0.983000	0.983000
51.000000	1.021300	1.015000	1.011900	1.002100	1.000200	0.996300	0.975200	0.992300	0.992400	1.007900	1.007600	1.003800	1.003500	0.998000	1.009500	1.011100	1.010000	1.009900	1.010000	1.010500	1.009900	1.009400	1.010400	1.010400	1.010400	1.010400	1.011900	1.012900	1.010900	1.012400	1.011900	1.011500	1.011900	1.011900	1.011000	1.011000	1.012400	1.012400	1.012500
52.000000	1.050000	1.044100	1.041100	1.031600	1.029800	1.026000	1.004500	1.022200	1.022300	1.037200	1.037000	1.033300	1.033000	1.027700	1.038900	1.040400	1.039300	1.039300	1.039300	1.039800	1.039200	1.038700	1.039700	1.039700	1.039700	1.039700	1.041100	1.042000	1.040200	1.041600	1.041200	1.040700	1.041200	1.041200	1.040300	1.040300	1.041600	1.041600	1.041700
53.000000	1.078500	1.072800	1.070000	1.060800	1.059100	1.055400	1.033500	1.051700	1.051800	1.066300	1.066100	1.062500	1.062200	1.057200	1.067900	1.069300	1.068300	1.068300	1.068300	1.068800	1.068300	1.067800	1.068700	1.068700	1.068800	1.068800	1.070100	1.071000	1.069200	1.070600	1.070100	1.069700	1.070100	1.070100	1.069300	1.069300	1.070600	1.070600	1.070600
54.000000	1.106600	1.101300	1.098600	1.089700	1.088100	1.084500	1.062100	1.080900	1.081000	1.095100	1.094800	1.091400	1.091100	1.086200	1.096600	1.098000	1.097000	1.097000	1.097100	1.097500	1.097000	1.096600	1.097400	1.097400	1.097500	1.097500	1.098700	1.099600	1.097900	1.099200	1.098800	1.098400	1.098800	1.098800	1.097900	1.097900	1.099200	1.099200	1.099200
55.000000	1.134500	1.129400	1.126800	1.118300	1.116700	1.113200	1.090400	1.109800	1.109900	1.123500	1.123300	1.120000	1.119700	1.115000	1.125000	1.126300	1.125400	1.125400	1.125400	1.125800	1.125400	1.125000	1.125800	1.125800	1.125800	1.125800	1.127000	1.127800	1.126200	1.127500	1.127100	1.126700	1.127100	1.127100	1.126300	1.126300	1.127500	1.127500	1.127500
56.000000	1.162000	1.157200	1.154700	1.146500	1.145000	1.141500	1.118400	1.138200	1.138400	1.151500	1.151300	1.148200	1.147900	1.143300	1.153000	1.154200	1.153400	1.153400	1.153400	1.153800	1.153400	1.153000	1.153800	1.153800	1.153800	1.153800	1.155000	1.155700	1.154200	1.155400	1.155000	1.154600	1.155000	1.155000	1.154200	1.154200	1.155400	1.155400	1.155400
57.000000	1.189100	1.184600	1.182200	1.174300	1.172800	1.169500	1.145900	1.166300	1.166400	1.179100	1.178900	1.175900	1.175700	1.171200	1.180600	1.181800	1.181000	1.181000	1.181000	1.181400	1.181000	1.180600	1.181300	1.181300	1.181400	1.181400	1.182500	1.183200	1.181700	1.182800	1.182500	1.182100	1.182500	1.182500	1.181800	1.181800	1.182900	1.182900	1.182900
58.000000	1.215900	1.211500	1.209200	1.201600	1.200200	1.197000	1.173000	1.193900	1.194000	1.206300	1.206100	1.203200	1.203000	1.198700	1.207700	1.208800	1.208100	1.208100	1.208100	1.208500	1.208100	1.207700	1.208500	1.208500	1.208500	1.208500	1.209500	1.210200	1.208900	1.209900	1.209600	1.209200	1.209600	1.209600	1.208900	1.208900	1.209900	1.209900	1.209900
59.000000	1.242100	1.238000	1.235800	1.228400	1.227100	1.224000	1.199600	1.221000	1.221200	1.233000	1.232800	1.230100	1.229800	1.225700	1.234400	1.235500	1.234800	1.234800	1.234800	1.235100	1.234800	1.234400	1.235100	1.235100	1.235100	1.235100	1.236200	1.236800	1.235500	1.236500	1.236200	1.235800	1.236200	1.236200	1.235500	1.235500	1.236500	1.236500	1.236500
60.000000	1.267900	1.264000	1.261900	1.254800	1.253500	1.250500	1.225800	1.247600	1.247800	1.259200	1.259100	1.256400	1.256100	1.252200	1.260600	1.261600	1.260900	1.260900	1.260900	1.261300	1.260900	1.260600	1.261300	1.261300	1.261300	1.261300	1.262300	1.262900	1.261600	1.262600	1.262300	1.262000	1.262300	1.262300	1.261600	1.261600	1.262600	1.262600	1.262600
61.000000	1.293200	1.289400	1.287400	1.280600	1.279300	1.276400	1.251300	1.273700	1.273800	1.284900	1.284700	1.282200	1.281900	1.278100	1.286200	1.287200	1.286500	1.286500	1.286600	1.286900	1.286600	1.286200	1.286900	1.286900	1.286900	1.286900	1.287800	1.288400	1.287200	1.288100	1.287800	1.287500	1.287800	1.287800	1.287200	1.287200	1.288100	1.288100	1.288100
62.000000	1.317900	1.314400	1.312400	1.305800	1.304600	1.301800	1.276400	1.299200	1.299300	1.310000	1.309900	1.307400	1.307200	1.303500	1.311300	1.312200	1.311600	1.311600	1.311600	1.311900	1.311600	1.311300	1.311900	1.311900	1.311900	1.312000	1.312800	1.313400	1.312300	1.313100	1.312800	1.312600	1.312900	1.312900	1.312300	1.312300	1.313100	1.313100	1.313100
63.000000	1.342100	1.338700	1.336800	1.330500	1.329300	1.326600	1.300800	1.324000	1.324200	1.334500	1.334400	1.332000	1.331800	1.328300	1.335800	1.336600	1.336100	1.336100	1.336100	1.336400	1.336100	1.335800	1.336400	1.336400	1.336400	1.336400	1.337300	1.337800	1.336700	1.337500	1.337300	1.337000	1.337300	1.337300	1.336700	1.336700	1.337500	1.337600	1.337500
64.000000	1.365600	1.362400	1.360600	1.354500	1.353400	1.350800	1.324600	1.348300	1.348500	1.358400	1.358300	1.356000	1.355800	1.352400	1.359600	1.360400	1.359900	1.359900	1.359900	1.360200	1.360000	1.359700	1.360200	1.360300	1.360300	1.360300	1.361100	1.361600	1.360500	1.361300	1.361100	1.360800	1.361100	1.361100	1.360600	1.360600	1.361300	1.361300	1.361300
65.000000	1.388600	1.385500	1.383800	1.377900	1.376800	1.374300	1.347800	1.371900	1.372100	1.381700	1.381600	1.379400	1.379200	1.375900	1.382800	1.383600	1.383100	1.383100	1.383100	1.383400	1.383200	1.382900	1.383400	1.383400	1.383400	1.383400	1.384200	1.384700	1.383700	1.384500	1.384200	1.384000	1.384200	1.384200	1.383700	1.383700	1.384500	1.384500	1.384500
66.000000	1.410800	1.407900	1.406300	1.400600	1.399600	1.397100	1.370300	1.394800	1.395000	1.404300	1.404100	1.402000	1.401800	1.398700	1.405400	1.406100	1.405700	1.405700	1.405700	1.405900	1.405700	1.405400	1.406000	1.406000	1.406000	1.406000	1.406700	1.407200	1.406200	1.406900	1.406700	1.406500	1.406700	1.406700	1.406200	1.406200	1.407000	1.407000	1.407000
67.000000	1.432400	1.429600	1.428100	1.422600	1.421600	1.419200	1.392100	1.417000	1.417200	1.426100	1.426000	1.424000	1.423800	1.420700	1.427200	1.427900	1.427500	1.427500	1.427500	1.427800	1.427500	1.427300	1.427800	1.427800	1.427800	1.427800	1.428500	1.428900	1.428000	1.428700	1.428500	1.428300	1.428500	1.428500	1.428000	1.428100	1.428700	1.428700	1.428700
68.000000	1.453300	1.450600	1.449100	1.443900	1.442900	1.440600	1.413100	1.438500	1.438600	1.447300	1.447200	1.445200	1.445000	1.442100	1.448300	1.449000	1.448600	1.448600	1.448600	1.448800	1.448600	1.448400	1.448900	1.448900	1.448900	1.448900	1.449600	1.450000	1.449100	1.449800	1.449600	1.449300	1.449600	1.449600	1.449100	1.449100	1.449800	1.449800	1.449800
69.000000	1.473400	1.470900	1.469400	1.464400	1.463400	1.461300	1.433500	1.459200	1.459300	1.467700	1.467600	1.465700	1.465500	1.462700	1.468700	1.469300	1.468900	1.469000	1.469000	1.469200	1.469000	1.468800	1.469200	1.469200	1.469200	1.469200	1.469900	1.470300	1.469500	1.470100	1.469900	1.469700	1.469900	1.469900	1.469500	1.469500	1.470100	1.470100	1.470100
70.000000	1.492800	1.490400	1.489000	1.484100	1.483200	1.481100	1.453000	1.479100	1.479200	1.487300	1.487200	1.485400	1.485200	1.482500	1.488300	1.488900	1.488500	1.488500	1.488500	1.488700	1.488600	1.488300	1.488800	1.488800	1.488800	1.488800	1.489400	1.489800	1.489000	1.489600	1.489400	1.489200	1.489400	1.489400	1.489000	1.489000	1.489600	1.489600	1.489600
71.000000	1.511400	1.509000	1.507700	1.503000	1.502200	1.500100	1.471800	1.498200	1.498400	1.506100	1.506000	1.504300	1.504100	1.501500	1.507100	1.507600	1.507300	1.507300	1.507300	1.507500	1.507300	1.507100	1.507500	1.507600	1.507500	1.507600	1.508100	1.508500	1.507800	1.508300	1.508100	1.508000	1.508100	1.508200	1.507800	1.507800	1.508300	1.508300	1.508300
72.000000	1.529100	1.526900	1.525700	1.521100	1.520300	1.518300	1.489700	1.516500	1.516600	1.524100	1.524000	1.522300	1.522200	1.519700	1.525000	1.525600	1.525300	1.525300	1.525300	1.525500	1.525300	1.525100	1.525500	1.525500	1.525500	1.525500	1.526100	1.526400	1.525700	1.526200	1.526100	1.525900	1.526100	1.526100	1.525700	1.525700	1.526300	1.526300	1.526200
73.000000	1.546100	1.543900	1.542700	1.538400	1.537600	1.535700	1.506800	1.533900	1.534000	1.541300	1.541200	1.539600	1.539400	1.537000	1.542200	1.542700	1.542400	1.542400	1.542400	1.542600	1.542400	1.542200	1.542600	1.542600	1.542600	1.542600	1.543100	1.543500	1.542800	1.543300	1.543100	1.543000	1.543100	1.543200	1.542800	1.542800	1.543300	1.543300	1.543300
74.000000	1.562100	1.560100	1.559000	1.554800	1.554000	1.552200	1.523100	1.550400	1.550600	1.557600	1.557500	1.555900	1.555800	1.553400	1.558400	1.558900	1.558600	1.558600	1.558600	1.558800	1.558700	1.558500	1.558800	1.558900	1.558800	1.558900	1.559400	1.559700	1.559000	1.559500	1.559400	1.559200	1.559400	1.559400	1.559000	1.559000	1.559500	1.559500	1.559500
75.000000	1.577400	1.575400	1.574300	1.570300	1.569500	1.567800	1.538500	1.566100	1.566300	1.573000	1.572900	1.571400	1.571300	1.569000	1.573800	1.574300	1.574000	1.574000	1.574000	1.574200	1.574000	1.573900	1.574200	1.574200	1.574200	1.574200	1.574700	1.575000	1.574400	1.574900	1.574700	1.574500	1.574700	1.574700	1.574400	1.574400	1.574900	1.574900	1.574900
76.000000	1.591700	1.589800	1.588800	1.584900	1.584200	1.582500	1.552900	1.580900	1.581000	1.587500	1.587400	1.586000	1.585800	1.583700	1.588300	1.588700	1.588500	1.588500	1.588500	1.588600	1.588500	1.588300	1.588700	1.588700	1.588700	1.588700	1.589100	1.589400	1.588800	1.589300	1.589100	1.589000	1.589200	1.589200	1.588900	1.588900	1.589300	1.589300	1.589300
77.000000	1.605100	1.603300	1.602300	1.598600	1.597900	1.596200	1.566500	1.594700	1.594800	1.601100	1.601000	1.599600	1.599500	1.597400	1.601800	1.602300	1.602000	1.602000	1.602000	1.602200	1.602100	1.601900	1.602200	1.602200	1.602200	1.602200	1.602700	1.603000	1.602400	1.602800	1.602700	1.602500	1.602700	1.602700	1.602400	1.602400	1.602800	1.602800	1.602800
78.000000	1.617600	1.615900	1.614900	1.611300	1.610700	1.609100	1.579200	1.607600	1.607700	1.613700	1.613600	1.612300	1.612200	1.610200	1.614500	1.614900	1.614600	1.614600	1.614600	1.614800	1.614700	1.614500	1.614800	1.614800	1.614800	1.614800	1.615300	1.615500	1.615000	1.615400	1.615300	1.615100	1.615300	1.615300	1.615000	1.615000	1.615400	1.615400	1.615400
79.000000	1.629100	1.627500	1.626600	1.623100	1.622500	1.621000	1.590900	1.619500	1.619700	1.625400	1.625300	1.624100	1.624000	1.622000	1.626100	1.626500	1.626300	1.626300	1.626300	1.626500	1.626300	1.626200	1.626500	1.626500	1.626500	1.626500	1.626900	1.627200	1.626700	1.627000	1.626900	1.626800	1.626900	1.626900	1.626700	1.626700	1.627100	1.627100	1.627000
80.000000	1.639700	1.638100	1.637300	1.633900	1.633300	1.631900	1.601700	1.630500	1.630600	1.636200	1.636100	1.634900	1.634800	1.632900	1.636900	1.637200	1.637000	1.637000	1.637000	1.637200	1.637100	1.636900	1.637200	1.637200	1.637200	1.637200	1.637600	1.637800	1.637400	1.637700	1.637600	1.637500	1.637600	1.637600	1.637400	1.637400	1.637700	1.637700	1.637700
81.000000	1.649300	1.647800	1.647000	1.643800	1.643200	1.641800	1.611500	1.640500	1.640600	1.645900	1.645900	1.644700	1.644600	1.642800	1.646600	1.647000	1.646800	1.646800	1.646800	1.646900	1.646800	1.646700	1.646900	1.646900	1.646900	1.646900	1.647300	1.647600	1.647100	1.647400	1.647300	1.647200	1.647300	1.647300	1.647100	1.647100	1.647400	1.647400	1.647400
82.000000	1.657900	1.656500	1.655700	1.652600	1.652100	1.650700	1.620300	1.649400	1.649600	1.654700	1.654700	1.653500	1.653400	1.651700	1.655400	1.655700	1.655500	1.655500	1.655500	1.655700	1.655500	1.655400	1.655700	1.655700	1.655700	1.655700	1.656000	1.656300	1.655800	1.656200	1.656000	1.655900	1.656000	1.656000	1.655800	1.655800	1.656200	1.656200	1.656200
83.000000	1.665600	1.664200	1.663500	1.660500	1.660000	1.658700	1.628100	1.657400	1.657500	1.662500	1.662400	1.661400	1.661300	1.659600	1.663100	1.663400	1.663300	1.663300	1.663300	1.663400	1.663300	1.663200	1.663400	1.663400	1.663400	1.663400	1.663800	1.664000	1.663600	1.663900	1.663800	1.663700	1.663800	1.663800	1.663600	1.663600	1.663900	1.663900	1.663900
84.000000	1.672200	1.670900	1.670200	1.667400	1.666800	1.665600	1.635000	1.664400	1.664500	1.669300	1.669200	1.668200	1.668100	1.666500	1.669900	1.670200	1.670000	1.670000	1.670000	1.670100	1.670100	1.669900	1.670200	1.670200	1.670200	1.670200	1.670500	1.670700	1.670300	1.670600	1.670500	1.670400	1.670500	1.670500	1.670300	1.670300	1.670600	1.670600	1.670600
85.000000	1.677900	1.676600	1.675900	1.673200	1.672700	1.671500	1.640800	1.670300	1.670500	1.675100	1.675000	1.674000	1.673900	1.672400	1.675600	1.675900	1.675800	1.675800	1.675800	1.675900	1.675800	1.675700	1.675900	1.675900	1.675900	1.675900	1.676200	1.676400	1.676000	1.676300	1.676200	1.676100	1.676200	1.676200	1.676000	1.676000	1.676300	1.676300	1.676300
86.000000	1.682500	1.681300	1.680600	1.678000	1.677500	1.676400	1.645600	1.675300	1.675400	1.679800	1.679700	1.678800	1.678700	1.677200	1.680300	1.680600	1.680500	1.680500	1.680500	1.680600	1.680500	1.680400	1.680600	1.680600	1.680600	1.680600	1.680900	1.681100	1.680700	1.681000	1.680900	1.680800	1.680900	1.680900	1.680700	1.680700	1.681000	1.681000	1.681000
87.000000	1.686100	1.685000	1.684300	1.681800	1.681300	1.680200	1.649400	1.679200	1.679300	1.683500	1.683500	1.682600	1.682500	1.681100	1.684000	1.684300	1.684200	1.684200	1.684200	1.684300	1.684200	1.684100	1.684300	1.684300	1.684300	1.684300	1.684600	1.684800	1.684400	1.684700	1.684600	1.684500	1.684600	1.684600	1.684400	1.684400	1.684700	1.684700	1.684700
88.000000	1.688700	1.687600	1.687000	1.684500	1.684100	1.683000	1.652200	1.682000	1.682100	1.686200	1.686100	1.685300	1.685200	1.683900	1.686700	1.687000	1.686800	1.686800	1.686800	1.686900	1.686900	1.686800	1.687000	1.687000	1.687000	1.687000	1.687200	1.687400	1.687100	1.687300	1.687200	1.687200	1.687200	1.687200	1.687100	1.687100	1.687300	1.687300	1.687300
89.000000	1.690200	1.689200	1.688600	1.686300	1.685800	1.684800	1.654000	1.683800	1.683900	1.687900	1.687800	1.687000	1.686900	1.685600	1.688300	1.688600	1.688500	1.688500	1.688500	1.688600	1.688500	1.688400	1.688600	1.688600	1.688600	1.688600	1.688900	1.689000	1.688700	1.688900	1.688800	1.688800	1.688900	1.688900	1.688700	1.688700	1.688900	1.688900	1.688900
90.000000	1.690700	1.689800	1.689200	1.686900	1.686500	1.685500	1.654800	1.684600	1.684700	1.688500	1.688400	1.687600	1.687600	1.686300	1.688900	1.689200	1.689100	1.689100	1.689100	1.689200	1.689100	1.689000	1.689200	1.689200	1.689200	1.689200	1.689400	1.689600	1.689300	1.689500	1.689400	1.689300	1.689400	1.689400	1.689300	1.689300	1.689500	1.689500	1.689500
91.000000	1.690200	1.689300	1.688700	1.686600	1.686200	1.685200	1.654500	1.684300	1.684400	1.688100	1.688000	1.687200	1.687200	1.686000	1.688500	1.688700	1.688600	1.688600	1.688600	1.688700	1.688600	1.688600	1.688700	1.688700	1.688700	1.688700	1.689000	1.689100	1.688800	1.689000	1.689000	1.688900	1.689000	1.689000	1.688800	1.688800	1.689100	1.689100	1.689000
92.000000	1.688700	1.687800	1.687200	1.685200	1.684800	1.683900	1.653200	1.683000	1.683100	1.686600	1.686600	1.685800	1.685800	1.684600	1.687000	1.687300	1.687100	1.687100	1.687100	1.687200	1.687200	1.687100	1.687300	1.687300	1.687300	1.687300	1.687500	1.687600	1.687300	1.687600	1.687500	1.687400	1.687500	1.687500	1.687300	1.687300	1.687600	1.687600	1.687600
93.000000	1.686100	1.685200	1.684700	1.682800	1.682400	1.681500	1.650900	1.680700	1.680800	1.684100	1.684100	1.683400	1.683300	1.682200	1.684500	1.684700	1.684600	1.684600	1.684600	1.684700	1.684700	1.684600	1.684700	1.684800	1.684700	1.684700	1.685000	1.685100	1.684800	1.685000	1.685000	1.684900	1.685000	1.685000	1.684800	1.684800	1.685000	1.685000	1.685000
94.000000	1.682500	1.681700	1.681200	1.679300	1.679000	1.678100	1.647600	1.677300	1.677400	1.680600	1.680600	1.679900	1.679800	1.678800	1.681000	1.681200	1.681100	1.681100	1.681100	1.681200	1.681100	1.681100	1.681200	1.681200	1.681200	1.681200	1.681400	1.681500	1.681300	1.681500	1.681400	1.681400	1.681400	1.681400	1.681300	1.681300	1.681500	1.681500	1.681500
95.000000	1.677900	1.677100	1.676600	1.674800	1.674500	1.673700	1.643300	1.672900	1.673000	1.676100	1.676000	1.675400	1.675300	1.674300	1.676500	1.676600	1.676500	1.676600	1.676500	1.676600	1.676600	1.676500	1.676600	1.676700	1.676600	1.676600	1.676800	1.677000	1.676700	1.676900	1.676800	1.676800	1.676800	1.676800	1.676700	1.676700	1.676900	1.676900	1.676900
96.000000	1.672200	1.671500	1.671000	1.669300	1.669000	1.668200	1.637900	1.667500	1.667600	1.670500	1.670500	1.669900	1.669800	1.668800	1.670900	1.671100	1.671000	1.671000	1.671000	1.671000	1.671000	1.670900	1.671100	1.671100	1.671100	1.671100	1.671300	1.671400	1.671100	1.671300	1.671300	1.671200	1.671300	1.671300	1.671100	1.671100	1.671300	1.671300	1.671300
97.000000	1.665600	1.664900	1.664500	1.662800	1.662500	1.661700	1.631600	1.661000	1.661100	1.664000	1.663900	1.663300	1.663300	1.662300	1.664300	1.664500	1.664400	1.664400	1.664400	1.664500	1.664400	1.664300	1.664500	1.664500	1.664500	1.664500	1.664700	1.664800	1.664500	1.664700	1.664700	1.664600	1.664700	1.664700	1.664500	1.664500	1.664700	1.664700	1.664700
98.000000	1.657900	1.657300	1.656900	1.655300	1.655000	1.654300	1.624300	1.653600	1.653700	1.656400	1.656300	1.655800	1.655700	1.654800	1.656700	1.656900	1.656800	1.656800	1.656800	1.656900	1.656800	1.656800	1.656900	1.656900	1.656900	1.656900	1.657100	1.657200	1.656900	1.657100	1.657100	1.657000	1.657100	1.657100	1.656900	1.656900	1.657100	1.657100	1.657100
99.000000	1.649300	1.648700	1.648300	1.646700	1.646500	1.645800	1.616000	1.645100	1.645200	1.647800	1.647800	1.647200	1.647200	1.646300	1.648100	1.648300	1.648200	1.648200	1.648200	1.648300	1.648200	1.648200	1.648300	1.648300	1.648300	1.648300	1.648500	1.648600	1.648400	1.648500	1.648500	1.648400	1.648500	1.648500	1.648400	1.648400	1.648500	1.648500	1.648500
100.000000	1.639700	1.639100	1.638700	1.637200	1.637000	1.636300	1.606700	1.635700	1.635800	1.638300	1.638200	1.637700	1.637700	1.636900	1.638600	1.638700	1.638600	1.638700	1.638600	1.638700	1.638700	1.638600	1.638700	1.638700	1.638700	1.638700	1.638900	1.639000	1.638800	1.638900	1.638900	1.638800	1.638900	1.638900	1.638800	1.638800	1.638900	1.638900	1.638900
101.000000	1.629100	1.628500	1.628200	1.626800	1.626500	1.625900	1.596500	1.625300	1.625400	1.627700	1.627700	1.627200	1.627200	1.626400	1.628000	1.628200	1.628100	1.628100	1.628100	1.628200	1.628100	1.628100	1.628200	1.628200	1.628200	1.628200	1.628300	1.628400	1.628200	1.628400	1.628300	1.628300	1.628300	1.628300	1.628200	1.628200	1.628400	1.628400	1.628400
102.000000	1.617600	1.617000	1.616700	1.615300	1.615100	1.614500	1.585300	1.613900	1.614000	1.616300	1.616200	1.615800	1.615700	1.615000	1.616600	1.616700	1.616600	1.616600	1.616600	1.616700	1.616600	1.616600	1.616700	1.616700	1.616700	1.616700	1.616800	1.616900	1.616700	1.616900	1.616800	1.616800	1.616800	1.616800	1.616700	1.616700	1.616900	1.616900	1.616900
103.000000	1.605100	1.604600	1.604200	1.602900	1.602700	1.602100	1.573200	1.601600	1.601700	1.603800	1.603800	1.603400	1.603300	1.602600	1.604100	1.604200	1.604200	1.604200	1.604200	1.604200	1.604200	1.604200	1.604300	1.604300	1.604300	1.604300	1.604400	1.604500	1.604300	1.604400	1.604400	1.604300	1.604400	1.604400	1.604300	1.604300	1.604400	1.604400	1.604400
104.000000	1.591700	1.591200	1.590900	1.589600	1.589400	1.588900	1.560200	1.588300	1.588400	1.590500	1.590500	1.590000	1.590000	1.589300	1.590800	1.590900	1.590800	1.590800	1.590800	1.590900	1.590800	1.590800	1.590900	1.590900	1.590900	1.590900	1.591000	1.591100	1.590900	1.591100	1.591000	1.591000	1.591000	1.591000	1.590900	1.590900	1.591100	1.591100	1.591100
105.000000	1.577400	1.576900	1.576600	1.575400	1.575200	1.574700	1.546300	1.574200	1.574200	1.576200	1.576200	1.575800	1.575800	1.575100	1.576500	1.576600	1.576500	1.576500	1.576500	1.576600	1.576600	1.576500	1.576600	1.576600	1.576600	1.576600	1.576700	1.576800	1.576700	1.576800	1.576700	1.576700	1.576700	1.576700	1.576700	1.576700	1.576800	1.576800	1.576800
106.000000	1.562100	1.561700	1.561400	1.560300	1.560100	1.559600	1.531500	1.559100	1.559200	1.561100	1.561100	1.560700	1.560600	1.560000	1.561300	1.561400	1.561400	1.561400	1.561400	1.561400	1.561400	1.561300	1.561400	1.561400	1.561400	1.561400	1.561600	1.561600	1.561500	1.561600	1.561600	1.561500	1.561600	1.561600	1.561500	1.561500	1.561600	1.561600	1.561600
107.000000	1.546100	1.545600	1.545400	1.544300	1.544100	1.543600	1.515800	1.543200	1.543200	1.545100	1.545000	1.544600	1.544600	1.544000	1.545300	1.545400	1.545300	1.545300	1.545300	1.545400	1.545300	1.545300	1.545400	1.545400	1.545400	1.545400	1.545500	1.545600	1.545400	1.545500	1.545500	1.545500	1.545500	1.545500	1.545400	1.545400	1.545500	1.545500	1.545500
108.000000	1.529100	1.528700	1.528500	1.527400	1.527300	1.526800	1.499300	1.526400	1.526400	1.528200	1.528100	1.527800	1.527700	1.527200	1.528400	1.528500	1.528400	1.528400	1.528400	1.528500	1.528400	1.528400	1.528500	1.528500	1.528500	1.528500	1.528600	1.528700	1.528500	1.528600	1.528600	1.528600	1.528600	1.528600	1.528500	1.528500	1.528600	1.528600	1.528600
109.000000	1.511400	1.511000	1.510700	1.509800	1.509600	1.509100	1.482000	1.508700	1.508800	1.510400	1.510400	1.510100	1.510000	1.509500	1.510700	1.510700	1.510700	1.510700	1.510700	1.510700	1.510700	1.510700	1.510800	1.510800	1.510800	1.510800	1.510900	1.510900	1.510800	1.510900	1.510900	1.510800	1.510900	1.510900	1.510800	1.510800	1.510900	1.510900	1.510900
110.000000	1.492800	1.492400	1.492200	1.491300	1.491100	1.490700	1.463800	1.490300	1.490300	1.491900	1.491900	1.491600	1.491500	1.491000	1.492100	1.492200	1.492200	1.492200	1.492200	1.492200	1.492200	1.492100	1.492200	1.492200	1.492200	1.492200	1.492300	1.492400	1.492200	1.492300	1.492300	1.492300	1.492300	1.492300	1.492200	1.492200	1.492300	1.492300	1.492300
111.000000	1.473400	1.473100	1.472800	1.472000	1.471800	1.471400	1.444900	1.471000	1.471100	1.472600	1.472600	1.472300	1.472200	1.471700	1.472800	1.472900	1.472800	1.472800	1.472800	1.472900	1.472800	1.472800	1.472900	1.472900	1.472900	1.472900	1.473000	1.473000	1.472900	1.473000	1.473000	1.472900	1.473000	1.473000	1.472900	1.472900	1.473000	1.473000	1.473000
112.000000	1.453300	1.453000	1.452700	1.451900	1.451800	1.451400	1.425300	1.451000	1.451100	1.452500	1.452500	1.452200	1.452200	1.451700	1.452700	1.452800	1.452700	1.452700	1.452700	1.452800	1.452700	1.452700	1.452800	1.452800	1.452800	1.452800	1.452900	1.452900	1.452800	1.452900	1.452900	1.452800	1.452900	1.452900	1.452800	1.452800	1.452900	1.452900	1.452900
113.000000	1.432400	1.432100	1.431900	1.431100	1.431000	1.430600	1.404900	1.430200	1.430300	1.431700	1.431700	1.431400	1.431300	1.430900	1.431800	1.431900	1.431900	1.431900	1.431900	1.431900	1.431900	1.431900	1.431900	1.431900	1.431900	1.431900	1.432000	1.432100	1.432000	1.432000	1.432000	1.432000	1.432000	1.432000	1.432000	1.432000	1.432000	1.432000	1.432000
114.000000	1.410800	1.410500	1.410400	1.409600	1.409500	1.409100	1.383800	1.408800	1.408800	1.410100	1.410100	1.409800	1.409800	1.409400	1.410300	1.410400	1.410300	1.410300	1.410300	1.410400	1.410300	1.410300	1.410400	1.410400	1.410400	1.410400	1.410500	1.410500	1.410400	1.410500	1.410500	1.410400	1.410500	1.410500	1.410400	1.410400	1.410500	1.410500	1.410500
115.000000	1.388600	1.388300	1.388100	1.387400	1.387300	1.386900	1.362000	1.386600	1.386600	1.387900	1.387900	1.387600	1.387600	1.387200	1.388100	1.388100	1.388100	1.388100	1.388100	1.388100	1.388100	1.388100	1.388100	1.388100	1.388100	1.388100	1.388200	1.388300	1.388200	1.388200	1.388200	1.388200	1.388200	1.388200	1.388200	1.388200	1.388200	1.388200	1.388200
116.000000	1.365700	1.365400	1.365200	1.364500	1.364400	1.364100	1.339600	1.363800	1.363800	1.365000	1.365000	1.364800	1.364700	1.364300	1.365200	1.365200	1.365200	1.365200	1.365200	1.365200	1.365200	1.365200	1.365200	1.365200	1.365200	1.365200	1.365300	1.365300	1.365300	1.365300	1.365300	1.365300	1.365300	1.365300	1.365300	1.365300	1.365300	1.365300	1.365300
117.000000	1.342100	1.341800	1.341700	1.341000	1.340900	1.340600	1.316500	1.340300	1.340300	1.341500	1.341500	1.341200	1.341200	1.340800	1.341600	1.341700	1.341700	1.341700	1.341700	1.341700	1.341700	1.341600	1.341700	1.341700	1.341700	1.341700	1.341800	1.341800	1.341700	1.341800	1.341800	1.341700	1.341800	1.341800	1.341700	1.341700	1.341800	1.341800	1.341800
118.000000	1.317900	1.317700	1.317500	1.316900	1.316800	1.316500	1.292900	1.316200	1.316300	1.317400	1.317300	1.317100	1.317100	1.316800	1.317500	1.317500	1.317500	1.317500	1.317500	1.317500	1.317500	1.317500	1.317600	1.317600	1.317600	1.317600	1.317600	1.317700	1.317600	1.317600	1.317600	1.317600	1.317600	1.317600	1.317600	1.317600	1.317600	1.317600	1.317600
119.000000	1.293200	1.293000	1.292800	1.292200	1.292100	1.291800	1.268700	1.291600	1.291600	1.292600	1.292600	1.292400	1.292400	1.292100	1.292800	1.292800	1.292800	1.292800	1.292800	1.292800	1.292800	1.292800	1.292800	1.292800	1.292800	1.292800	1.292900	1.292900	1.292900	1.292900	1.292900	1.292900	1.292900	1.292900	1.292900	1.292900	1.292900	1.292900	1.292900
120.000000	1.267900	1.267700	1.267600	1.267000	1.266900	1.266600	1.243900	1.266400	1.266400	1.267400	1.267400	1.267200	1.267200	1.266900	1.267500	1.267600	1.267600	1.267600	1.267600	1.267600	1.267600	1.267500	1.267600	1.267600	1.267600	1.267600	1.267600	1.267700	1.267600	1.267700	1.267600	1.267600	1.267600	1.267600	1.267600	1.267600	1.267700	1.267700	1.267700
121.000000	1.242100	1.241900	1.241800	1.241300	1.241200	1.240900	1.218700	1.240700	1.240700	1.241600	1.241600	1.241400	1.241400	1.241100	1.241800	1.241800	1.241800	1.241800	1.241800	1.241800	1.241800	1.241800	1.241800	1.241800	1.241800	1.241800	1.241900	1.241900	1.241800	1.241900	1.241900	1.241800	1.241900	1.241900	1.241800	1.241800	1.241900	1.241900	1.241900
122.000000	1.215900	1.215700	1.215500	1.215000	1.214900	1.214700	1.193000	1.214500	1.214500	1.215400	1.215400	1.215200	1.215200	1.214900	1.215500	1.215600	1.215500	1.215500	1.215500	1.215600	1.215500	1.215500	1.215600	1.215600	1.215600	1.215600	1.215600	1.215600	1.215600	1.215600	1.215600	1.215600	1.215600	1.215600	1.215600	1.215600	1.215600	1.215600	1.215600
123.000000	1.189200	1.189000	1.188800	1.188400	1.188300	1.188100	1.166800	1.187800	1.187900	1.188700	1.188700	1.188500	1.188500	1.188200	1.188800	1.188900	1.188800	1.188800	1.188800	1.188900	1.188800	1.188800	1.188900	1.188900	1.188900	1.188900	1.188900	1.188900	1.188900	1.188900	1.188900	1.188900	1.188900	1.188900	1.188900	1.188900	1.188900	1.188900	1.188900
124.000000	1.162000	1.161800	1.161700	1.161300	1.161200	1.161000	1.140200	1.160800	1.160800	1.161600	1.161600	1.161400	1.161400	1.161200	1.161700	1.161700	1.161700	1.161700	1.161700	1.161700	1.161700	1.161700	1.161800	1.161800	1.161700	1.161800	1.161800	1.161800	1.161800	1.161800	1.161800	1.161800	1.161800	1.161800	1.161800	1.161800	1.161800	1.161800	1.161800
125.000000	1.134500	1.134300	1.134200	1.133800	1.133700	1.133500	1.113200	1.133300	1.133400	1.134100	1.134100	1.134000	1.133900	1.133700	1.134200	1.134200	1.134200	1.134200	1.134200	1.134200	1.134200	1.134200	1.134300	1.134300	1.134300	1.134300	1.134300	1.134300	1.134300	1.134300	1.134300	1.134300	1.134300	1.134300	1.134300	1.134300	1.134300	1.134300	1.134300
126.000000	1.106600	1.106500	1.106400	1.106000	1.105900	1.105700	1.085900	1.105500	1.105600	1.106300	1.106300	1.106100	1.106100	1.105900	1.106400	1.106400	1.106400	1.106400	1.106400	1.106400	1.106400	1.106400	1.106400	1.106400	1.106400	1.106400	1.106500	1.106500	1.106400	1.106500	1.106500	1.106400	1.106500	1.106500	1.106400	1.106400	1.106500	1.106500	1.106500
127.000000	1.078500	1.078300	1.078200	1.077900	1.077800	1.077600	1.058300	1.077400	1.077500	1.078100	1.078100	1.078000	1.078000	1.077800	1.078200	1.078200	1.078200	1.078200	1.078200	1.078200	1.078200	1.078200	1.078300	1.078300	1.078300	1.078300	1.078300	1.078300	1.078300	1.078300	1.078300	1.078300	1.078300	1.078300	1.078300	1.078300	1.078300	1.078300	1.078300
128.000000	1.050000	1.049900	1.049800	1.049400	1.049400	1.049200	1.030400	1.049000	1.049100	1.049700	1.049700	1.049600	1.049600	1.049300	1.049800	1.049800	1.049800	1.049800	1.049800	1.049800	1.049800	1.049800	1.049800	1.049800	1.049800	1.049800	1.049800	1.049900	1.049800	1.049900	1.049800	1.049800	1.049800	1.049800	1.049800	1.049800	1.049900	1.049900	1.049900
129.000000	1.021300	1.021200	1.021100	1.020800	1.020700	1.020600	1.002300	1.020400	1.020400	1.021000	1.021000	1.020900	1.020900	1.020700	1.021100	1.021100	1.021100	1.021100	1.021100	1.021100	1.021100	1.021100	1.021100	1.021100	1.021100	1.021100	1.021200	1.021200	1.021100	1.021200	1.021200	1.021200	1.021200	1.021200	1.021100	1.021100	1.021200	1.021200	1.021200
130.000000	0.992400	0.992300	0.992200	0.991900	0.991800	0.991700	0.974000	0.991600	0.991600	0.992100	0.992100	0.992000	0.992000	0.991800	0.992200	0.992200	0.992200	0.992200	0.992200	0.992200	0.992200	0.992200	0.992200	0.992200	0.992200	0.992200	0.992300	0.992300	0.992200	0.992300	0.992300	0.992300	0.992300	0.992300	0.992200	0.992200	0.992300	0.992300	0.992300
131.000000	0.963300	0.963200	0.963200	0.962800	0.962800	0.962700	0.945500	0.962500	0.962500	0.963100	0.963100	0.963000	0.962900	0.962800	0.963100	0.963200	0.963200	0.963200	0.963200	0.963200	0.963200	0.963100	0.963200	0.963200	0.963200	0.963200	0.963200	0.963200	0.963200	0.963200	0.963200	0.963200	0.963200	0.963200	0.963200	0.963200	0.963200	0.963200	0.963200
132.000000	0.934100	0.934000	0.933900	0.933700	0.933600	0.933500	0.916800	0.933400	0.933400	0.933900	0.933900	0.933800	0.933800	0.933600	0.933900	0.934000	0.933900	0.933900	0.933900	0.934000	0.933900	0.933900	0.934000	0.934000	0.934000	0.934000	0.934000	0.934000	0.934000	0.934000	0.934000	0.934000	0.934000	0.934000	0.934000	0.934000	0.934000	0.934000	0.934000
133.000000	0.904800	0.904700	0.904600	0.904400	0.904300	0.904200	0.888100	0.904100	0.904100	0.904600	0.904600	0.904500	0.904500	0.904300	0.904600	0.904600	0.904600	0.904600	0.904600	0.904600	0.904600	0.904600	0.904700	0.904700	0.904600	0.904700	0.904700	0.904700	0.904700	0.904700	0.904700	0.904700	0.904700	0.904700	0.904700	0.904700	0.904700	0.904700	0.904700
134.000000	0.875400	0.875300	0.875300	0.875000	0.875000	0.874800	0.859200	0.874700	0.874800	0.875200	0.875200	0.875100	0.875100	0.875000	0.875200	0.875300	0.875300	0.875300	0.875300	0.875300	0.875300	0.875300	0.875300	0.875300	0.875300	0.875300	0.875300	0.875300	0.875300	0.875300	0.875300	0.875300	0.875300	0.875300	0.875300	0.875300	0.875300	0.875300	0.875300
135.000000	0.846000	0.845900	0.845900	0.845600	0.845600	0.845500	0.830400	0.845400	0.845400	0.845800	0.845800	0.845700	0.845700	0.845600	0.845800	0.845900	0.845900	0.845900	0.845900	0.845900	0.845900	0.845800	0.845900	0.845900	0.845900	0.845900	0.845900	0.845900	0.845900	0.845900	0.845900	0.845900	0.845900	0.845900	0.845900	0.845900	0.845900	0.845900	0.845900
136.000000	0.816600	0.816500	0.816500	0.816200	0.816200	0.816100	0.801500	0.816000	0.816000	0.816400	0.816400	0.816300	0.816300	0.816200	0.816400	0.816500	0.816400	0.816500	0.816500	0.816500	0.816500	0.816400	0.816500	0.816500	0.816500	0.816500	0.816500	0.816500	0.816500	0.816500	0.816500	0.816500	0.816500	0.816500	0.816500	0.816500	0.816500	0.816500	0.816500
137.000000	0.787200	0.787100	0.787100	0.786900	0.786800	0.786700	0.772700	0.786700	0.786700	0.787000	0.787000	0.787000	0.787000	0.786800	0.787100	0.787100	0.787100	0.787100	0.787100	0.787100	0.787100	0.787100	0.787100	0.787100	0.787100	0.787100	0.787100	0.787100	0.787100	0.787100	0.787100	0.787100	0.787100	0.787100	0.787100	0.787100	0.787100	0.787100	0.787100
138.000000	0.757900	0.757900	0.757800	0.757600	0.757600	0.757500	0.744000	0.757400	0.757400	0.757800	0.757700	0.757700	0.757700	0.757600	0.757800	0.757800	0.757800	0.757800	0.757800	0.757800	0.757800	0.757800	0.757800	0.757800	0.757800	0.757800	0.757800	0.757800	0.757800	0.757800	0.757800	0.757800	0.757800	0.757800	0.757800	0.757800	0.757800	0.757800	0.757800
139.000000	0.728700	0.728700	0.728600	0.728500	0.728400	0.728300	0.715400	0.728300	0.728300	0.728600	0.728600	0.728500	0.728500	0.728400	0.728600	0.728600	0.728600	0.728600	0.728600	0.728600	0.728600	0.728600	0.728600	0.728600	0.728600	0.728600	0.728700	0.728700	0.728600	0.728700	0.728700	0.728700	0.728700	0.728700	0.728600	0.728600	0.728700	0.728700	0.728700
140.000000	0.699700	0.699600	0.699600	0.699400	0.699400	0.699300	0.686900	0.699300	0.699300	0.699600	0.699600	0.699500	0.699500	0.699400	0.699600	0.699600	0.699600	0.699600	0.699600	0.699600	0.699600	0.699600	0.699600	0.699600	0.699600	0.699600	0.699600	0.699600	0.699600	0.699600	0.699600	0.699600	0.699600	0.699600	0.699600	0.699600	0.699600	0.699600	0.699600
141.000000	0.670900	0.670800	0.670800	0.670600	0.670600	0.670500	0.658600	0.670400	0.670400	0.670700	0.670700	0.670700	0.670700	0.670600	0.670800	0.670800	0.670800	0.670800	0.670800	0.670800	0.670800	0.670800	0.670800	0.670800	0.670800	0.670800	0.670800	0.670800	0.670800	0.670800	0.670800	0.670800	0.670800	0.670800	0.670800	0.670800	0.670800	0.670800	0.670800
142.000000	0.642200	0.642200	0.642100	0.642000	0.642000	0.641900	0.630500	0.641800	0.641800	0.642100	0.642100	0.642000	0.642000	0.642000	0.642100	0.642100	0.642100	0.642100	0.642100	0.642100	0.642100	0.642100	0.642100	0.642100	0.642100	0.642100	0.642200	0.642200	0.642200	0.642200	0.642200	0.642200	0.642200	0.642200	0.642200	0.642200	0.642200	0.642200	0.642200
143.000000	0.613900	0.613800	0.613800	0.613600	0.613600	0.613500	0.602600	0.613500	0.613500	0.613700	0.613700	0.613700	0.613700	0.613600	0.613800	0.613800	0.613800	0.613800	0.613800	0.613800	0.613800	0.613800	0.613800	0.613800	0.613800	0.613800	0.613800	0.613800	0.613800	0.613800	0.613800	0.613800	0.613800	0.613800	0.613800	0.613800	0.613800	0.613800	0.613800
144.000000	0.585800	0.585700	0.585700	0.585600	0.585500	0.585500	0.575100	0.585400	0.585400	0.585700	0.585600	0.585600	0.585600	0.585500	0.585700	0.585700	0.585700	0.585700	0.585700	0.585700	0.585700	0.585700	0.585700	0.585700	0.585700	0.585700	0.585700	0.585700	0.585700	0.585700	0.585700	0.585700	0.585700	0.585700	0.585700	0.585700	0.585700	0.585700	0.585700
145.000000	0.558000	0.558000	0.557900	0.557800	0.557800	0.557700	0.547800	0.557700	0.557700	0.557900	0.557900	0.557900	0.557800	0.557800	0.557900	0.557900	0.557900	0.557900	0.557900	0.557900	0.557900	0.557900	0.557900	0.557900	0.557900	0.557900	0.557900	0.557900	0.557900	0.557900	0.557900	0.557900	0.557900	0.557900	0.557900	0.557900	0.557900	0.557900	0.557900
146.000000	0.530600	0.530500	0.530500	0.530400	0.530400	0.530300	0.520900	0.530300	0.530300	0.530500	0.530500	0.530500	0.530500	0.530400	0.530500	0.530500	0.530500	0.530500	0.530500	0.530500	0.530500	0.530500	0.530500	0.530500	0.530500	0.530500	0.530500	0.530500	0.530500	0.530500	0.530500	0.530500	0.530500	0.530500	0.530500	0.530500	0.530500	0.530500	0.530500
147.000000	0.503600	0.503500	0.503500	0.503400	0.503400	0.503300	0.494400	0.503300	0.503300	0.503500	0.503500	0.503400	0.503400	0.503400	0.503500	0.503500	0.503500	0.503500	0.503500	0.503500	0.503500	0.503500	0.503500	0.503500	0.503500	0.503500	0.503500	0.503500	0.503500	0.503500	0.503500	0.503500	0.503500	0.503500	0.503500	0.503500	0.503500	0.503500	0.503500
148.000000	0.477000	0.476900	0.476900	0.476800	0.476800	0.476800	0.468300	0.476700	0.476700	0.476900	0.476900	0.476900	0.476900	0.476800	0.476900	0.476900	0.476900	0.476900	0.476900	0.476900	0.476900	0.476900	0.476900	0.476900	0.476900	0.476900	0.476900	0.476900	0.476900	0.476900	0.476900	0.476900	0.476900	0.476900	0.476900	0.476900	0.476900	0.476900	0.476900
149.000000	0.450800	0.450800	0.450800	0.450700	0.450700	0.450600	0.442700	0.450600	0.450600	0.450800	0.450800	0.450700	0.450700	0.450700	0.450800	0.450800	0.450800	0.450800	0.450800	0.450800	0.450800	0.450800	0.450800	0.450800	0.450800	0.450800	0.450800	0.450800	0.450800	0.450800	0.450800	0.450800	0.450800	0.450800	0.450800	0.450800	0.450800	0.450800	0.450800
150.000000	0.425200	0.425100	0.425100	0.425000	0.425000	0.425000	0.417500	0.425000	0.425000	0.425100	0.425100	0.425100	0.425100	0.425000	0.425100	0.425100	0.425100	0.425100	0.425100	0.425100	0.425100	0.425100	0.425100	0.425100	0.425100	0.425100	0.425100	0.425100	0.425100	0.425100	0.425100	0.425100	0.425100	0.425100	0.425100	0.425100	0.425100	0.425100	0.425100
151.000000	0.400000	0.400000	0.400000	0.399900	0.399900	0.399900	0.392800	0.399800	0.399800	0.400000	0.400000	0.399900	0.399900	0.399900	0.400000	0.400000	0.400000	0.400000	0.400000	0.400000	0.400000	0.400000	0.400000	0.400000	0.400000	0.400000	0.400000	0.400000	0.400000	0.400000	0.400000	0.400000	0.400000	0.400000	0.400000	0.400000	0.400000	0.400000	0.400000
152.000000	0.375400	0.375400	0.375400	0.375300	0.375300	0.375300	0.368700	0.375300	0.375300	0.375400	0.375400	0.375400	0.375400	0.375300	0.375400	0.375400	0.375400	0.375400	0.375400	0.375400	0.375400	0.375400	0.375400	0.375400	0.375400	0.375400	0.375400	0.375400	0.375400	0.375400	0.375400	0.375400	0.375400	0.375400	0.375400	0.375400	0.375400	0.375400	0.375400
153.000000	0.351400	0.351400	0.351400	0.351300	0.351300	0.351300	0.345100	0.351300	0.351300	0.351400	0.351400	0.351400	0.351300	0.351300	0.351400	0.351400	0.351400	0.351400	0.351400	0.351400	0.351400	0.351400	0.351400	0.351400	0.351400	0.351400	0.351400	0.351400	0.351400	0.351400	0.351400	0.351400	0.351400	0.351400	0.351400	0.351400	0.351400	0.351400	0.351400
154.000000	0.328000	0.328000	0.328000	0.327900	0.327900	0.327900	0.322100	0.327900	0.327900	0.328000	0.328000	0.328000	0.327900	0.327900	0.328000	0.328000	0.328000	0.328000	0.328000	0.328000	0.328000	0.328000	0.328000	0.328000	0.328000	0.328000	0.328000	0.328000	0.328000	0.328000	0.328000	0.328000	0.328000	0.328000	0.328000	0.328000	0.328000	0.328000	0.328000
155.000000	0.305200	0.305200	0.305200	0.305200	0.305200	0.305100	0.299800	0.305100	0.305100	0.305200	0.305200	0.305200	0.305200	0.305200	0.305200	0.305200	0.305200	0.305200	0.305200	0.305200	0.305200	0.305200	0.305200	0.305200	0.305200	0.305200	0.305200	0.305200	0.305200	0.305200	0.305200	0.305200	0.305200	0.305200	0.305200	0.305200	0.305200	0.305200	0.305200
156.000000	0.283100	0.283100	0.283100	0.283100	0.283100	0.283000	0.278100	0.283000	0.283000	0.283100	0.283100	0.283100	0.283100	0.283100	0.283100	0.283100	0.283100	0.283100	0.283100	0.283100	0.283100	0.283100	0.283100	0.283100	0.283100	0.283100	0.283100	0.283100	0.283100	0.283100	0.283100	0.283100	0.283100	0.283100	0.283100	0.283100	0.283100	0.283100	0.283100
157.000000	0.261700	0.261700	0.261700	0.261700	0.261600	0.261600	0.257000	0.261600	0.261600	0.261700	0.261700	0.261700	0.261700	0.261600	0.261700	0.261700	0.261700	0.261700	0.261700	0.261700	0.261700	0.261700	0.261700	0.261700	0.261700	0.261700	0.261700	0.261700	0.261700	0.261700	0.261700	0.261700	0.261700	0.261700	0.261700	0.261700	0.261700	0.261700	0.261700
158.000000	0.241000	0.241000	0.241000	0.241000	0.240900	0.240900	0.236700	0.240900	0.240900	0.241000	0.241000	0.241000	0.241000	0.240900	0.241000	0.241000	0.241000	0.241000	0.241000	0.241000	0.241000	0.241000	0.241000	0.241000	0.241000	0.241000	0.241000	0.241000	0.241000	0.241000	0.241000	0.241000	0.241000	0.241000	0.241000	0.241000	0.241000	0.241000	0.241000
159.000000	0.221000	0.221000	0.221000	0.221000	0.221000	0.221000	0.217100	0.221000	0.221000	0.221000	0.221000	0.221000	0.221000	0.221000	0.221000	0.221000	0.221000	0.221000	0.221000	0.221000	0.221000	0.221000	0.221000	0.221000	0.221000	0.221000	0.221000	0.221000	0.221000	0.221000	0.221000	0.221000	0.221000	0.221000	0.221000	0.221000	0.221000	0.221000	0.221000
160.000000	0.201800	0.201800	0.201800	0.201800	0.201800	0.201800	0.198300	0.201800	0.201800	0.201800	0.201800	0.201800	0.201800	0.201800	0.201800	0.201800	0.201800	0.201800	0.201800	0.201800	0.201800	0.201800	0.201800	0.201800	0.201800	0.201800	0.201800	0.201800	0.201800	0.201800	0.201800	0.201800	0.201800	0.201800	0.201800	0.201800	0.201800	0.201800	0.201800
161.000000	0.183400	0.183400	0.183400	0.183400	0.183400	0.183400	0.180200	0.183400	0.183400	0.183400	0.183400	0.183400	0.183400	0.183400	0.183400	0.183400	0.183400	0.183400	0.183400	0.183400	0.183400	0.183400	0.183400	0.183400	0.183400	0.183400	0.183400	0.183400	0.183400	0.183400	0.183400	0.183400	0.183400	0.183400	0.183400	0.183400	0.183400	0.183400	0.183400
162.000000	0.165800	0.165800	0.165800	0.165800	0.165800	0.165800	0.162900	0.165800	0.165800	0.165800	0.165800	0.165800	0.165800	0.165800	0.165800	0.165800	0.165800	0.165800	0.165800	0.165800	0.165800	0.165800	0.165800	0.165800	0.165800	0.165800	0.165800	0.165800	0.165800	0.165800	0.165800	0.165800	0.165800	0.165800	0.165800	0.165800	0.165800	0.165800	0.165800
163.000000	0.149000	0.149000	0.149000	0.149000	0.149000	0.149000	0.146400	0.149000	0.149000	0.149000	0.149000	0.149000	0.149000	0.149000	0.149000	0.149000	0.149000	0.149000	0.149000	0.149000	0.149000	0.149000	0.149000	0.149000	0.149000	0.149000	0.149000	0.149000	0.149000	0.149000	0.149000	0.149000	0.149000	0.149000	0.149000	0.149000	0.149000	0.149000	0.149000
164.000000	0.133100	0.133100	0.133100	0.133100	0.133100	0.133100	0.130800	0.133100	0.133100	0.133100	0.133100	0.133100	0.133100	0.133100	0.133100	0.133100	0.133100	0.133100	0.133100	0.133100	0.133100	0.133100	0.133100	0.133100	0.133100	0.133100	0.133100	0.133100	0.133100	0.133100	0.133100	0.133100	0.133100	0.133100	0.133100	0.133100	0.133100	0.133100	0.133100
165.000000	0.118100	0.118100	0.118000	0.118000	0.118000	0.118000	0.116000	0.118000	0.118000	0.118000	0.118000	0.118000	0.118000	0.118000	0.118000	0.118000	0.118000	0.118000	0.118000	0.118000	0.118000	0.118000	0.118100	0.118100	0.118000	0.118100	0.118100	0.118100	0.118100	0.118100	0.118100	0.118100	0.118100	0.118100	0.118100	0.118100	0.118100	0.118100	0.118100
166.000000	0.103900	0.103900	0.103900	0.103900	0.103900	0.103900	0.102100	0.103900	0.103900	0.103900	0.103900	0.103900	0.103900	0.103900	0.103900	0.103900	0.103900	0.103900	0.103900	0.103900	0.103900	0.103900	0.103900	0.103900	0.103900	0.103900	0.103900	0.103900	0.103900	0.103900	0.103900	0.103900	0.103900	0.103900	0.103900	0.103900	0.103900	0.103900	0.103900
167.000000	0.090600	0.090600	0.090600	0.090600	0.090600	0.090600	0.089100	0.090600	0.090600	0.090600	0.090600	0.090600	0.090600	0.090600	0.090600	0.090600	0.090600	0.090600	0.090600	0.090600	0.090600	0.090600	0.090600	0.090600	0.090600	0.090600	0.090600	0.090600	0.090600	0.090600	0.090600	0.090600	0.090600	0.090600	0.090600	0.090600	0.090600	0.090600	0.090600
168.000000	0.078300	0.078300	0.078300	0.078300	0.078300	0.078300	0.077000	0.078300	0.078300	0.078300	0.078300	0.078300	0.078300	0.078300	0.078300	0.078300	0.078300	0.078300	0.078300	0.078300	0.078300	0.078300	0.078300	0.078300	0.078300	0.078300	0.078300	0.078300	0.078300	0.078300	0.078300	0.078300	0.078300	0.078300	0.078300	0.078300	0.078300	0.078300	0.078300
169.000000	0.066900	0.066900	0.066900	0.066900	0.066900	0.066900	0.065800	0.066900	0.066900	0.066900	0.066900	0.066900	0.066900	0.066900	0.066900	0.066900	0.066900	0.066900	0.066900	0.066900	0.066900	0.066900	0.066900	0.066900	0.066900	0.066900	0.066900	0.066900	0.066900	0.066900	0.066900	0.066900	0.066900	0.066900	0.066900	0.066900	0.066900	0.066900	0.066900
170.000000	0.056400	0.056400	0.056400	0.056400	0.056400	0.056400	0.055500	0.056400	0.056400	0.056400	0.056400	0.056400	0.056400	0.056400	0.056400	0.056400	0.056400	0.056400	0.056400	0.056400	0.056400	0.056400	0.056400	0.056400	0.056400	0.056400	0.056400	0.056400	0.056400	0.056400	0.056400	0.056400	0.056400	0.056400	0.056400	0.056400	0.056400	0.056400	0.056400
171.000000	0.046900	0.046900	0.046900	0.046900	0.046900	0.046900	0.046200	0.046900	0.046900	0.046900	0.046900	0.046900	0.046900	0.046900	0.046900	0.046900	0.046900	0.046900	0.046900	0.046900	0.046900	0.046900	0.046900	0.046900	0.046900	0.046900	0.046900	0.046900	0.046900	0.046900	0.046900	0.046900	0.046900	0.046900	0.046900	0.046900	0.046900	0.046900	0.046900
172.000000	0.038400	0.038400	0.038400	0.038400	0.038400	0.038400	0.037800	0.038400	0.038400	0.038400	0.038400	0.038400	0.038400	0.038400	0.038400	0.038400	0.038400	0.038400	0.038400	0.038400	0.038400	0.038400	0.038400	0.038400	0.038400	0.038400	0.038400	0.038400	0.038400	0.038400	0.038400	0.038400	0.038400	0.038400	0.038400	0.038400	0.038400	0.038400	0.038400
173.000000	0.030800	0.030800	0.030800	0.030800	0.030800	0.030800	0.030400	0.030800	0.030800	0.030800	0.030800	0.030800	0.030800	0.030800	0.030800	0.030800	0.030800	0.030800	0.030800	0.030800	0.030800	0.030800	0.030800	0.030800	0.030800	0.030800	0.030800	0.030800	0.030800	0.030800	0.030800	0.030800	0.030800	0.030800	0.030800	0.030800	0.030800	0.030800	0.030800
174.000000	0.024200	0.024300	0.024300	0.024300	0.024300	0.024300	0.023900	0.024300	0.024300	0.024300	0.024300	0.024300	0.024300	0.024300	0.024300	0.024300	0.024300	0.024300	0.024300	0.024300	0.024300	0.024300	0.024300	0.024300	0.024300	0.024300	0.024300	0.024300	0.024300	0.024300	0.024300	0.024300	0.024300	0.024300	0.024300	0.024300	0.024300	0.024300	0.024300
175.000000	0.018700	0.018700	0.018700	0.018700	0.018700	0.018700	0.018500	0.018700	0.018700	0.018700	0.018700	0.018700	0.018700	0.018700	0.018700	0.018700	0.018700	0.018700	0.018700	0.018700	0.018700	0.018700	0.018700	0.018700	0.018700	0.018700	0.018700	0.018700	0.018700	0.018700	0.018700	0.018700	0.018700	0.018700	0.018700	0.018700	0.018700	0.018700	0.018700
176.000000	0.014100	0.014100	0.014100	0.014100	0.014100	0.014100	0.014000	0.014100	0.014100	0.014100	0.014100	0.014100	0.014100	0.014100	0.014100	0.014100	0.014100	0.014100	0.014100	0.014100	0.014100	0.014100	0.014100	0.014100	0.014100	0.014100	0.014100	0.014100	0.014100	0.014100	0.014100	0.014100	0.014100	0.014100	0.014100	0.014100	0.014100	0.014100	0.014100
177.000000	0.010600	0.010600	0.010600	0.010600	0.010600	0.010600	0.010500	0.010600	0.010600	0.010600	0.010600	0.010600	0.010600	0.010600	0.010600	0.010600	0.010600	0.010600	0.010600	0.010600	0.010600	0.010600	0.010600	0.010600	0.010600	0.010600	0.010600	0.010600	0.010600	0.010600	0.010600	0.010600	0.010600	0.010600	0.010600	0.010600	0.010600	0.010600	0.010600
178.000000	0.008000	0.008000	0.008000	0.008000	0.008000	0.008000	0.008000	0.008000	0.008000	0.008000	0.008000	0.008000	0.008000	0.008000	0.008000	0.008000	0.008000	0.008000	0.008000	0.008000	0.008000	0.008000	0.008000	0.008000	0.008000	0.008000	0.008000	0.008000	0.008000	0.008000	0.008000	0.008000	0.008000	0.008000	0.008000	0.008000	0.008000	0.008000	0.008000
179.000000	0.006500	0.006500	0.006500	0.006500	0.006500	0.006500	0.006500	0.006500	0.006500	0.006500	0.006500	0.006500	0.006500	0.006500	0.006500	0.006500	0.006500	0.006500	0.006500	0.006500	0.006500	0.006500	0.006500	0.006500	0.006500	0.006500	0.006500	0.006500	0.006500	0.006500	0.006500	0.006500	0.006500	0.006500	0.006500	0.006500	0.006500	0.006500	0.006500
180.000000	0.006000	0.006000	0.006000	0.006000	0.006000	0.006000	0.006000	0.006000	0.006000	0.006000	0.006000	0.006000	0.006000	0.006000	0.006000	0.006000	0.006000	0.006000	0.006000	0.006000	0.006000	0.006000	0.006000	0.006000	0.006000	0.006000	0.006000	0.006000	0.006000	0.006000	0.006000	0.006000	0.006000	0.006000	0.006000	0.006000	0.006000	0.006000	0.006000
