First column is AoA (deg) and first row is Reynolds Number
0.000000	200000.000000	300000.000000	400000.000000	500000.000000	600000.000000	700000.000000	800000.000000	900000.000000	1000000.000000	1100000.000000	1200000.000000	1300000.000000	1400000.000000	1500000.000000	1600000.000000	1700000.000000	1800000.000000	1900000.000000	2000000.000000	2100000.000000	2200000.000000	2300000.000000	2400000.000000	2500000.000000	2600000.000000	2700000.000000	2800000.000000	2900000.000000	3000000.000000	3100000.000000	3200000.000000	3300000.000000	3400000.000000	3500000.000000	3600000.000000	3700000.000000	3800000.000000	3900000.000000	4000000.000000
-180.000000	0.006000	0.006000	0.006000	0.006000	0.006000	0.006000	0.006000	0.006000	0.006000	0.006000	0.006000	0.006000	0.006000	0.006000	0.006000	0.006000	0.006000	0.006000	0.006000	0.006000	0.006000	0.006000	0.006000	0.006000	0.006000	0.006000	0.006000	0.006000	0.006000	0.006000	0.006000	0.006000	0.006000	0.006000	0.006000	0.006000	0.006000	0.006000	0.006000
-179.000000	0.006500	0.006500	0.006500	0.006500	0.006500	0.006500	0.006500	0.006500	0.006500	0.006500	0.006500	0.006500	0.006500	0.006500	0.006500	0.006500	0.006500	0.006500	0.006500	0.006500	0.006500	0.006500	0.006500	0.006500	0.006500	0.006500	0.006500	0.006500	0.006500	0.006500	0.006500	0.006500	0.006500	0.006500	0.006500	0.006500	0.006500	0.006500	0.006500
-178.000000	0.008000	0.008000	0.008000	0.008000	0.008000	0.008000	0.008000	0.008000	0.008000	0.008000	0.008000	0.008000	0.008000	0.008000	0.008000	0.008000	0.008000	0.008000	0.008000	0.008000	0.008000	0.008000	0.008000	0.008000	0.008000	0.008000	0.008000	0.008000	0.008000	0.008000	0.008000	0.008000	0.008000	0.008000	0.008000	0.008000	0.008000	0.008000	0.008000
-177.000000	0.010500	0.010500	0.010500	0.010500	0.010500	0.010400	0.010500	0.010500	0.010500	0.010500	0.010500	0.010500	0.010500	0.010500	0.010500	0.010500	0.010500	0.010500	0.010500	0.010500	0.010500	0.010500	0.010500	0.010500	0.010500	0.010500	0.010500	0.010500	0.010500	0.010500	0.010500	0.010500	0.010500	0.010500	0.010500	0.010500	0.010500	0.010500	0.010500
-176.000000	0.014000	0.014000	0.014000	0.014000	0.014000	0.013900	0.014000	0.014000	0.014000	0.014000	0.014000	0.014000	0.014000	0.014000	0.014000	0.014000	0.014000	0.014000	0.014000	0.014000	0.014000	0.014000	0.014000	0.014000	0.014000	0.014000	0.014000	0.014000	0.014000	0.014000	0.014000	0.014000	0.014000	0.014000	0.014000	0.014000	0.014000	0.014000	0.014000
-175.000000	0.018500	0.018500	0.018500	0.018500	0.018500	0.018300	0.018500	0.018500	0.018500	0.018500	0.018500	0.018500	0.018500	0.018500	0.018500	0.018500	0.018500	0.018500	0.018500	0.018500	0.018500	0.018500	0.018500	0.018500	0.018500	0.018500	0.018500	0.018500	0.018500	0.018500	0.018500	0.018500	0.018500	0.018500	0.018500	0.018500	0.018500	0.018500	0.018500
-174.000000	0.023900	0.023900	0.023900	0.023900	0.023900	0.023700	0.023900	0.023900	0.023900	0.023900	0.023900	0.023900	0.023900	0.023900	0.023900	0.023900	0.023900	0.023900	0.023900	0.023900	0.023900	0.023900	0.023900	0.023900	0.023900	0.023900	0.023900	0.023900	0.023900	0.023900	0.023900	0.023900	0.023900	0.023900	0.023900	0.023900	0.023900	0.023900	0.023900
-173.000000	0.030300	0.030300	0.030300	0.030300	0.030300	0.030100	0.030300	0.030300	0.030300	0.030300	0.030300	0.030300	0.030300	0.030300	0.030300	0.030300	0.030300	0.030300	0.030300	0.030300	0.030300	0.030300	0.030300	0.030300	0.030300	0.030300	0.030300	0.030300	0.030300	0.030300	0.030300	0.030300	0.030300	0.030300	0.030300	0.030300	0.030300	0.030300	0.030300
-172.000000	0.037800	0.037800	0.037800	0.037800	0.037800	0.037400	0.037800	0.037800	0.037800	0.037800	0.037800	0.037800	0.037800	0.037800	0.037800	0.037800	0.037800	0.037800	0.037800	0.037800	0.037800	0.037800	0.037800	0.037800	0.037800	0.037800	0.037800	0.037800	0.037800	0.037800	0.037800	0.037800	0.037800	0.037800	0.037800	0.037800	0.037800	0.037800	0.037800
-171.000000	0.046100	0.046100	0.046100	0.046100	0.046100	0.045600	0.046100	0.046100	0.046100	0.046100	0.046100	0.046100	0.046100	0.046100	0.046100	0.046100	0.046100	0.046100	0.046100	0.046100	0.046100	0.046100	0.046100	0.046100	0.046100	0.046100	0.046100	0.046100	0.046100	0.046100	0.046100	0.046100	0.046100	0.046100	0.046100	0.046100	0.046100	0.046100	0.046100
-170.000000	0.055400	0.055400	0.055400	0.055400	0.055400	0.054800	0.055400	0.055400	0.055400	0.055400	0.055400	0.055400	0.055400	0.055400	0.055400	0.055400	0.055400	0.055400	0.055400	0.055400	0.055400	0.055400	0.055400	0.055400	0.055400	0.055400	0.055400	0.055400	0.055400	0.055400	0.055400	0.055400	0.055400	0.055400	0.055400	0.055400	0.055400	0.055400	0.055400
-169.000000	0.065700	0.065700	0.065700	0.065700	0.065700	0.065000	0.065700	0.065700	0.065700	0.065700	0.065700	0.065700	0.065700	0.065700	0.065700	0.065700	0.065700	0.065700	0.065700	0.065700	0.065700	0.065700	0.065700	0.065700	0.065700	0.065700	0.065700	0.065700	0.065700	0.065700	0.065700	0.065700	0.065700	0.065700	0.065700	0.065700	0.065700	0.065700	0.065700
-168.000000	0.076900	0.076900	0.076900	0.076900	0.076900	0.076000	0.076900	0.076900	0.076900	0.076900	0.076900	0.076900	0.076900	0.076900	0.076900	0.076900	0.076900	0.076900	0.076900	0.076900	0.076900	0.076900	0.076900	0.076900	0.076900	0.076900	0.076900	0.076900	0.076900	0.076900	0.076900	0.076900	0.076900	0.076900	0.076900	0.076900	0.076900	0.076900	0.076900
-167.000000	0.089000	0.089000	0.089000	0.089000	0.089000	0.087900	0.089000	0.089000	0.089000	0.089000	0.089000	0.089000	0.089000	0.089000	0.089000	0.089000	0.089000	0.089000	0.089000	0.089000	0.089000	0.089000	0.089000	0.089000	0.089000	0.089000	0.089000	0.089000	0.089000	0.089000	0.089000	0.089000	0.089000	0.089000	0.089000	0.089000	0.089000	0.089000	0.089000
-166.000000	0.101900	0.101900	0.101900	0.101900	0.101900	0.100800	0.101900	0.101900	0.101900	0.101900	0.101900	0.101900	0.101900	0.101900	0.101900	0.101900	0.101900	0.101900	0.101900	0.101900	0.101900	0.101900	0.101900	0.101900	0.101900	0.101900	0.101900	0.101900	0.101900	0.101900	0.101900	0.101900	0.101900	0.101900	0.101900	0.101900	0.101900	0.101900	0.101900
-165.000000	0.115800	0.115800	0.115800	0.115800	0.115800	0.114500	0.115800	0.115800	0.115800	0.115800	0.115800	0.115800	0.115800	0.115800	0.115800	0.115800	0.115800	0.115800	0.115800	0.115800	0.115800	0.115800	0.115800	0.115800	0.115800	0.115800	0.115800	0.115800	0.115800	0.115800	0.115800	0.115800	0.115800	0.115800	0.115800	0.115800	0.115800	0.115800	0.115800
-164.000000	0.130600	0.130600	0.130600	0.130600	0.130600	0.129000	0.130600	0.130600	0.130600	0.130600	0.130600	0.130600	0.130600	0.130600	0.130600	0.130600	0.130600	0.130600	0.130600	0.130600	0.130600	0.130600	0.130600	0.130600	0.130600	0.130600	0.130600	0.130600	0.130600	0.130600	0.130600	0.130600	0.130600	0.130600	0.130600	0.130600	0.130600	0.130600	0.130600
-163.000000	0.146100	0.146100	0.146100	0.146100	0.146100	0.144400	0.146100	0.146100	0.146100	0.146100	0.146100	0.146100	0.146100	0.146100	0.146100	0.146100	0.146100	0.146100	0.146100	0.146100	0.146100	0.146100	0.146100	0.146100	0.146100	0.146100	0.146100	0.146100	0.146100	0.146100	0.146100	0.146100	0.146100	0.146100	0.146100	0.146100	0.146100	0.146100	0.146100
-162.000000	0.162500	0.162500	0.162500	0.162500	0.162500	0.160600	0.162500	0.162500	0.162500	0.162500	0.162500	0.162500	0.162500	0.162500	0.162500	0.162500	0.162500	0.162500	0.162500	0.162500	0.162500	0.162500	0.162500	0.162500	0.162500	0.162500	0.162500	0.162500	0.162500	0.162500	0.162500	0.162500	0.162500	0.162500	0.162500	0.162500	0.162500	0.162500	0.162500
-161.000000	0.179800	0.179800	0.179800	0.179800	0.179800	0.177600	0.179800	0.179800	0.179800	0.179800	0.179800	0.179800	0.179800	0.179800	0.179800	0.179800	0.179800	0.179800	0.179800	0.179800	0.179800	0.179800	0.179800	0.179800	0.179800	0.179800	0.179800	0.179800	0.179800	0.179800	0.179800	0.179800	0.179800	0.179800	0.179800	0.179800	0.179800	0.179800	0.179800
-160.000000	0.197800	0.197800	0.197800	0.197800	0.197800	0.195400	0.197800	0.197800	0.197800	0.197800	0.197800	0.197800	0.197800	0.197800	0.197800	0.197800	0.197800	0.197800	0.197800	0.197800	0.197800	0.197800	0.197800	0.197800	0.197800	0.197800	0.197800	0.197800	0.197800	0.197800	0.197800	0.197800	0.197800	0.197800	0.197800	0.197800	0.197800	0.197800	0.197800
-159.000000	0.216500	0.216500	0.216500	0.216500	0.216500	0.214000	0.216500	0.216500	0.216500	0.216500	0.216500	0.216500	0.216500	0.216500	0.216500	0.216500	0.216500	0.216500	0.216500	0.216500	0.216500	0.216500	0.216500	0.216500	0.216500	0.216500	0.216500	0.216500	0.216500	0.216500	0.216500	0.216500	0.216500	0.216500	0.216500	0.216500	0.216500	0.216500	0.216500
-158.000000	0.236100	0.236100	0.236100	0.236100	0.236100	0.233300	0.236100	0.236100	0.236100	0.236100	0.236100	0.236100	0.236100	0.236100	0.236100	0.236100	0.236100	0.236100	0.236100	0.236100	0.236100	0.236100	0.236100	0.236100	0.236100	0.236100	0.236100	0.236100	0.236100	0.236100	0.236100	0.236100	0.236100	0.236100	0.236100	0.236100	0.236100	0.236100	0.236100
-157.000000	0.256300	0.256300	0.256300	0.256300	0.256300	0.253200	0.256300	0.256300	0.256300	0.256300	0.256300	0.256300	0.256300	0.256300	0.256300	0.256300	0.256300	0.256300	0.256300	0.256300	0.256300	0.256300	0.256300	0.256300	0.256300	0.256300	0.256300	0.256300	0.256300	0.256300	0.256300	0.256300	0.256300	0.256300	0.256300	0.256300	0.256300	0.256300	0.256300
-156.000000	0.277200	0.277200	0.277200	0.277200	0.277200	0.273900	0.277200	0.277200	0.277200	0.277200	0.277200	0.277200	0.277200	0.277200	0.277200	0.277200	0.277200	0.277200	0.277200	0.277200	0.277200	0.277200	0.277200	0.277200	0.277200	0.277200	0.277200	0.277200	0.277200	0.277200	0.277200	0.277200	0.277200	0.277200	0.277200	0.277200	0.277200	0.277200	0.277200
-155.000000	0.298800	0.298800	0.298800	0.298800	0.298800	0.295200	0.298800	0.298800	0.298800	0.298800	0.298800	0.298800	0.298800	0.298800	0.298800	0.298800	0.298800	0.298800	0.298800	0.298800	0.298800	0.298800	0.298800	0.298800	0.298800	0.298800	0.298800	0.298800	0.298800	0.298800	0.298800	0.298800	0.298800	0.298800	0.298800	0.298800	0.298800	0.298800	0.298800
-154.000000	0.321000	0.321000	0.321000	0.321000	0.321000	0.317200	0.321000	0.321000	0.321000	0.321000	0.321000	0.321000	0.321000	0.321000	0.321000	0.321000	0.321000	0.321000	0.321000	0.321000	0.321000	0.321000	0.321000	0.321000	0.321000	0.321000	0.321000	0.321000	0.321000	0.321000	0.321000	0.321000	0.321000	0.321000	0.321000	0.321000	0.321000	0.321000	0.321000
-153.000000	0.343900	0.343900	0.343900	0.343900	0.343900	0.339800	0.343900	0.343900	0.343900	0.343900	0.343900	0.343900	0.343900	0.343900	0.343900	0.343900	0.343900	0.343900	0.343900	0.343900	0.343900	0.343900	0.343900	0.343900	0.343900	0.343900	0.343900	0.343900	0.343900	0.343900	0.343900	0.343900	0.343900	0.343900	0.343900	0.343900	0.343900	0.343900	0.343900
-152.000000	0.367300	0.367300	0.367300	0.367300	0.367300	0.362900	0.367300	0.367300	0.367300	0.367300	0.367300	0.367300	0.367300	0.367300	0.367300	0.367300	0.367300	0.367300	0.367300	0.367300	0.367300	0.367300	0.367300	0.367300	0.367300	0.367300	0.367300	0.367300	0.367300	0.367300	0.367300	0.367300	0.367300	0.367300	0.367300	0.367300	0.367300	0.367300	0.367300
-151.000000	0.391300	0.391300	0.391300	0.391300	0.391300	0.386600	0.391300	0.391300	0.391300	0.391300	0.391300	0.391300	0.391300	0.391300	0.391300	0.391300	0.391300	0.391300	0.391300	0.391300	0.391300	0.391300	0.391300	0.391300	0.391300	0.391300	0.391300	0.391300	0.391300	0.391300	0.391300	0.391300	0.391300	0.391300	0.391300	0.391300	0.391300	0.391300	0.391300
-150.000000	0.415900	0.415900	0.415900	0.415900	0.415900	0.410900	0.415900	0.415900	0.415900	0.415900	0.415900	0.415900	0.415900	0.415900	0.415900	0.415900	0.415900	0.415900	0.415900	0.415900	0.415900	0.415900	0.415900	0.415900	0.415900	0.415900	0.415900	0.415900	0.415900	0.415900	0.415900	0.415900	0.415900	0.415900	0.415900	0.415900	0.415900	0.415900	0.415900
-149.000000	0.440900	0.440900	0.440900	0.440900	0.440900	0.435600	0.440900	0.440900	0.440900	0.440900	0.440900	0.440900	0.440900	0.440900	0.440900	0.440900	0.440900	0.440900	0.440900	0.440900	0.440900	0.440900	0.440900	0.440900	0.440900	0.440900	0.440900	0.440900	0.440900	0.440900	0.440900	0.440900	0.440900	0.440900	0.440900	0.440900	0.440900	0.440900	0.440900
-148.000000	0.466400	0.466400	0.466400	0.466400	0.466400	0.460800	0.466400	0.466400	0.466400	0.466400	0.466400	0.466400	0.466400	0.466400	0.466400	0.466400	0.466400	0.466400	0.466400	0.466400	0.466400	0.466400	0.466400	0.466400	0.466400	0.466400	0.466400	0.466400	0.466400	0.466400	0.466400	0.466400	0.466400	0.466400	0.466400	0.466400	0.466400	0.466400	0.466400
-147.000000	0.492300	0.492300	0.492300	0.492300	0.492300	0.486400	0.492300	0.492300	0.492300	0.492300	0.492300	0.492300	0.492300	0.492300	0.492300	0.492300	0.492300	0.492300	0.492300	0.492300	0.492300	0.492300	0.492300	0.492300	0.492300	0.492300	0.492300	0.492300	0.492300	0.492300	0.492300	0.492300	0.492300	0.492300	0.492300	0.492300	0.492300	0.492300	0.492300
-146.000000	0.518600	0.518600	0.518600	0.518600	0.518600	0.512400	0.518600	0.518600	0.518600	0.518600	0.518600	0.518600	0.518600	0.518600	0.518600	0.518600	0.518600	0.518600	0.518600	0.518600	0.518600	0.518600	0.518600	0.518600	0.518600	0.518600	0.518600	0.518600	0.518600	0.518600	0.518600	0.518600	0.518600	0.518600	0.518600	0.518600	0.518600	0.518600	0.518600
-145.000000	0.545300	0.545300	0.545300	0.545300	0.545300	0.538800	0.545300	0.545300	0.545300	0.545300	0.545300	0.545300	0.545300	0.545300	0.545300	0.545300	0.545300	0.545300	0.545300	0.545300	0.545300	0.545300	0.545300	0.545300	0.545300	0.545300	0.545300	0.545300	0.545300	0.545300	0.545300	0.545300	0.545300	0.545300	0.545300	0.545300	0.545300	0.545300	0.545300
-144.000000	0.572400	0.572400	0.572400	0.572400	0.572400	0.565500	0.572400	0.572400	0.572400	0.572400	0.572400	0.572400	0.572400	0.572400	0.572400	0.572400	0.572400	0.572400	0.572400	0.572400	0.572400	0.572400	0.572400	0.572400	0.572400	0.572400	0.572400	0.572400	0.572400	0.572400	0.572400	0.572400	0.572400	0.572400	0.572400	0.572400	0.572400	0.572400	0.572400
-143.000000	0.599800	0.599800	0.599800	0.599800	0.599800	0.592500	0.599800	0.599800	0.599800	0.599800	0.599800	0.599800	0.599800	0.599800	0.599800	0.599800	0.599800	0.599800	0.599800	0.599800	0.599800	0.599800	0.599800	0.599800	0.599800	0.599800	0.599800	0.599800	0.599800	0.599800	0.599800	0.599800	0.599800	0.599800	0.599800	0.599800	0.599800	0.599800	0.599800
-142.000000	0.627400	0.627400	0.627400	0.627400	0.627400	0.619800	0.627400	0.627400	0.627400	0.627400	0.627400	0.627400	0.627400	0.627400	0.627400	0.627400	0.627400	0.627400	0.627400	0.627400	0.627400	0.627400	0.627400	0.627400	0.627400	0.627400	0.627400	0.627400	0.627400	0.627400	0.627400	0.627400	0.627400	0.627400	0.627400	0.627400	0.627400	0.627400	0.627400
-141.000000	0.655300	0.655300	0.655300	0.655300	0.655300	0.647400	0.655300	0.655300	0.655300	0.655300	0.655300	0.655300	0.655300	0.655300	0.655300	0.655300	0.655300	0.655300	0.655300	0.655300	0.655300	0.655300	0.655300	0.655300	0.655300	0.655300	0.655300	0.655300	0.655300	0.655300	0.655300	0.655300	0.655300	0.655300	0.655300	0.655300	0.655300	0.655300	0.655300
-140.000000	0.683400	0.683400	0.683400	0.683400	0.683400	0.675100	0.683400	0.683400	0.683400	0.683400	0.683400	0.683400	0.683400	0.683400	0.683400	0.683400	0.683400	0.683400	0.683400	0.683400	0.683400	0.683400	0.683400	0.683400	0.683400	0.683400	0.683400	0.683400	0.683400	0.683400	0.683400	0.683400	0.683400	0.683400	0.683400	0.683400	0.683400	0.683400	0.683400
-139.000000	0.711600	0.711600	0.711600	0.711600	0.711600	0.703000	0.711600	0.711600	0.711600	0.711600	0.711600	0.711600	0.711600	0.711600	0.711600	0.711600	0.711600	0.711600	0.711600	0.711600	0.711600	0.711600	0.711600	0.711600	0.711600	0.711600	0.711600	0.711600	0.711600	0.711600	0.711600	0.711600	0.711600	0.711600	0.711600	0.711600	0.711600	0.711600	0.711600
-138.000000	0.740000	0.740000	0.740000	0.740000	0.740000	0.731100	0.740000	0.740000	0.740000	0.740000	0.740000	0.740000	0.740000	0.740000	0.740000	0.740000	0.740000	0.740000	0.740000	0.740000	0.740000	0.740000	0.740000	0.740000	0.740000	0.740000	0.740000	0.740000	0.740000	0.740000	0.740000	0.740000	0.740000	0.740000	0.740000	0.740000	0.740000	0.740000	0.740000
-137.000000	0.768500	0.768500	0.768500	0.768500	0.768500	0.759200	0.768500	0.768500	0.768500	0.768500	0.768500	0.768500	0.768500	0.768500	0.768500	0.768500	0.768500	0.768500	0.768500	0.768500	0.768500	0.768500	0.768500	0.768500	0.768500	0.768500	0.768500	0.768500	0.768500	0.768500	0.768500	0.768500	0.768500	0.768500	0.768500	0.768500	0.768500	0.768500	0.768500
-136.000000	0.797100	0.797100	0.797100	0.797100	0.797100	0.787400	0.797100	0.797100	0.797100	0.797100	0.797100	0.797100	0.797100	0.797100	0.797100	0.797100	0.797100	0.797100	0.797100	0.797100	0.797100	0.797100	0.797100	0.797100	0.797100	0.797100	0.797100	0.797100	0.797100	0.797100	0.797100	0.797100	0.797100	0.797100	0.797100	0.797100	0.797100	0.797100	0.797100
-135.000000	0.825700	0.825700	0.825700	0.825700	0.825700	0.815700	0.825700	0.825700	0.825700	0.825700	0.825700	0.825700	0.825700	0.825700	0.825700	0.825700	0.825700	0.825700	0.825700	0.825700	0.825700	0.825700	0.825700	0.825700	0.825700	0.825700	0.825700	0.825700	0.825700	0.825700	0.825700	0.825700	0.825700	0.825700	0.825700	0.825700	0.825700	0.825700	0.825700
-134.000000	0.854300	0.854300	0.854300	0.854300	0.854300	0.844000	0.854300	0.854300	0.854300	0.854300	0.854300	0.854300	0.854300	0.854300	0.854300	0.854300	0.854300	0.854300	0.854300	0.854300	0.854300	0.854300	0.854300	0.854300	0.854300	0.854300	0.854300	0.854300	0.854300	0.854300	0.854300	0.854300	0.854300	0.854300	0.854300	0.854300	0.854300	0.854300	0.854300
-133.000000	0.882900	0.882900	0.882900	0.882900	0.882900	0.872200	0.882900	0.882900	0.882900	0.882900	0.882900	0.882900	0.882900	0.882900	0.882900	0.882900	0.882900	0.882900	0.882900	0.882900	0.882900	0.882900	0.882900	0.882900	0.882900	0.882900	0.882900	0.882900	0.882900	0.882900	0.882900	0.882900	0.882900	0.882900	0.882900	0.882900	0.882900	0.882900	0.882900
-132.000000	0.911400	0.911400	0.911400	0.911400	0.911400	0.900300	0.911400	0.911400	0.911400	0.911400	0.911400	0.911400	0.911400	0.911400	0.911400	0.911400	0.911400	0.911400	0.911400	0.911400	0.911400	0.911400	0.911400	0.911400	0.911400	0.911400	0.911400	0.911400	0.911400	0.911400	0.911400	0.911400	0.911400	0.911400	0.911400	0.911400	0.911400	0.911400	0.911400
-131.000000	0.939800	0.939800	0.939800	0.939800	0.939800	0.928400	0.939800	0.939800	0.939800	0.939800	0.939800	0.939800	0.939800	0.939800	0.939800	0.939800	0.939800	0.939800	0.939800	0.939800	0.939800	0.939800	0.939800	0.939800	0.939800	0.939800	0.939800	0.939800	0.939800	0.939800	0.939800	0.939800	0.939800	0.939800	0.939800	0.939800	0.939800	0.939800	0.939800
-130.000000	0.968000	0.968000	0.968000	0.968000	0.968000	0.956300	0.968000	0.968000	0.968000	0.968000	0.968000	0.968000	0.968000	0.968000	0.968000	0.968000	0.968000	0.968000	0.968000	0.968000	0.968000	0.968000	0.968000	0.968000	0.968000	0.968000	0.968000	0.968000	0.968000	0.968000	0.968000	0.968000	0.968000	0.968000	0.968000	0.968000	0.968000	0.968000	0.968000
-129.000000	0.996100	0.996100	0.996100	0.996100	0.996100	0.984000	0.996100	0.996100	0.996100	0.996100	0.996100	0.996100	0.996100	0.996100	0.996100	0.996100	0.996100	0.996100	0.996100	0.996100	0.996100	0.996100	0.996100	0.996100	0.996100	0.996100	0.996100	0.996100	0.996100	0.996100	0.996100	0.996100	0.996100	0.996100	0.996100	0.996100	0.996100	0.996100	0.996100
-128.000000	1.024000	1.024000	1.024000	1.024000	1.024000	1.011600	1.024000	1.024000	1.024000	1.024000	1.024000	1.024000	1.024000	1.024000	1.024000	1.024000	1.024000	1.024000	1.024000	1.024000	1.024000	1.024000	1.024000	1.024000	1.024000	1.024000	1.024000	1.024000	1.024000	1.024000	1.024000	1.024000	1.024000	1.024000	1.024000	1.024000	1.024000	1.024000	1.024000
-127.000000	1.051600	1.051600	1.051600	1.051600	1.051600	1.038900	1.051600	1.051600	1.051600	1.051600	1.051600	1.051600	1.051600	1.051600	1.051600	1.051600	1.051600	1.051600	1.051600	1.051600	1.051600	1.051600	1.051600	1.051600	1.051600	1.051600	1.051600	1.051600	1.051600	1.051600	1.051600	1.051600	1.051600	1.051600	1.051600	1.051600	1.051600	1.051600	1.051600
-126.000000	1.079000	1.079000	1.079000	1.079000	1.079000	1.065900	1.079000	1.079000	1.079000	1.079000	1.079000	1.079000	1.079000	1.079000	1.079000	1.079000	1.079000	1.079000	1.079000	1.079000	1.079000	1.079000	1.079000	1.079000	1.079000	1.079000	1.079000	1.079000	1.079000	1.079000	1.079000	1.079000	1.079000	1.079000	1.079000	1.079000	1.079000	1.079000	1.079000
-125.000000	1.106100	1.106100	1.106100	1.106100	1.106100	1.092600	1.106100	1.106100	1.106100	1.106100	1.106100	1.106100	1.106100	1.106100	1.106100	1.106100	1.106100	1.106100	1.106100	1.106100	1.106100	1.106100	1.106100	1.106100	1.106100	1.106100	1.106100	1.106100	1.106100	1.106100	1.106100	1.106100	1.106100	1.106100	1.106100	1.106100	1.106100	1.106100	1.106100
-124.000000	1.132800	1.132800	1.132800	1.132800	1.132800	1.119000	1.132800	1.132800	1.132800	1.132800	1.132800	1.132800	1.132800	1.132800	1.132800	1.132800	1.132800	1.132800	1.132800	1.132800	1.132800	1.132800	1.132800	1.132800	1.132800	1.132800	1.132800	1.132800	1.132800	1.132800	1.132800	1.132800	1.132800	1.132800	1.132800	1.132800	1.132800	1.132800	1.132800
-123.000000	1.159100	1.159100	1.159100	1.159100	1.159100	1.145000	1.159100	1.159100	1.159100	1.159100	1.159100	1.159100	1.159100	1.159100	1.159100	1.159100	1.159100	1.159100	1.159100	1.159100	1.159100	1.159100	1.159100	1.159100	1.159100	1.159100	1.159100	1.159100	1.159100	1.159100	1.159100	1.159100	1.159100	1.159100	1.159100	1.159100	1.159100	1.159100	1.159100
-122.000000	1.185000	1.185000	1.185000	1.185000	1.185000	1.170700	1.185000	1.185000	1.185000	1.185000	1.185000	1.185000	1.185000	1.185000	1.185000	1.185000	1.185000	1.185000	1.185000	1.185000	1.185000	1.185000	1.185000	1.185000	1.185000	1.185000	1.185000	1.185000	1.185000	1.185000	1.185000	1.185000	1.185000	1.185000	1.185000	1.185000	1.185000	1.185000	1.185000
-121.000000	1.210500	1.210500	1.210500	1.210500	1.210500	1.195800	1.210500	1.210500	1.210500	1.210500	1.210500	1.210500	1.210500	1.210500	1.210500	1.210500	1.210500	1.210500	1.210500	1.210500	1.210500	1.210500	1.210500	1.210500	1.210500	1.210500	1.210500	1.210500	1.210500	1.210500	1.210500	1.210500	1.210500	1.210500	1.210500	1.210500	1.210500	1.210500	1.210500
-120.000000	1.235600	1.235600	1.235600	1.235600	1.235600	1.220600	1.235600	1.235600	1.235600	1.235600	1.235600	1.235600	1.235600	1.235600	1.235600	1.235600	1.235600	1.235600	1.235600	1.235600	1.235600	1.235600	1.235600	1.235600	1.235600	1.235600	1.235600	1.235600	1.235600	1.235600	1.235600	1.235600	1.235600	1.235600	1.235600	1.235600	1.235600	1.235600	1.235600
-119.000000	1.260100	1.260100	1.260100	1.260100	1.260100	1.244800	1.260100	1.260100	1.260100	1.260100	1.260100	1.260100	1.260100	1.260100	1.260100	1.260100	1.260100	1.260100	1.260100	1.260100	1.260100	1.260100	1.260100	1.260100	1.260100	1.260100	1.260100	1.260100	1.260100	1.260100	1.260100	1.260100	1.260100	1.260100	1.260100	1.260100	1.260100	1.260100	1.260100
-118.000000	1.284100	1.284100	1.284100	1.284100	1.284100	1.268500	1.284100	1.284100	1.284100	1.284100	1.284100	1.284100	1.284100	1.284100	1.284100	1.284100	1.284100	1.284100	1.284100	1.284100	1.284100	1.284100	1.284100	1.284100	1.284100	1.284100	1.284100	1.284100	1.284100	1.284100	1.284100	1.284100	1.284100	1.284100	1.284100	1.284100	1.284100	1.284100	1.284100
-117.000000	1.307500	1.307500	1.307500	1.307500	1.307500	1.291600	1.307500	1.307500	1.307500	1.307500	1.307500	1.307500	1.307500	1.307500	1.307500	1.307500	1.307500	1.307500	1.307500	1.307500	1.307500	1.307500	1.307500	1.307500	1.307500	1.307500	1.307500	1.307500	1.307500	1.307500	1.307500	1.307500	1.307500	1.307500	1.307500	1.307500	1.307500	1.307500	1.307500
-116.000000	1.330400	1.330400	1.330400	1.330400	1.330400	1.314200	1.330400	1.330400	1.330400	1.330400	1.330400	1.330400	1.330400	1.330400	1.330400	1.330400	1.330400	1.330400	1.330400	1.330400	1.330400	1.330400	1.330400	1.330400	1.330400	1.330400	1.330400	1.330400	1.330400	1.330400	1.330400	1.330400	1.330400	1.330400	1.330400	1.330400	1.330400	1.330400	1.330400
-115.000000	1.352600	1.352600	1.352600	1.352600	1.352600	1.336200	1.352600	1.352600	1.352600	1.352600	1.352600	1.352600	1.352600	1.352600	1.352600	1.352600	1.352600	1.352600	1.352600	1.352600	1.352600	1.352600	1.352600	1.352600	1.352600	1.352600	1.352600	1.352600	1.352600	1.352600	1.352600	1.352600	1.352600	1.352600	1.352600	1.352600	1.352600	1.352600	1.352600
-114.000000	1.374200	1.374200	1.374200	1.374200	1.374200	1.357500	1.374200	1.374200	1.374200	1.374200	1.374200	1.374200	1.374200	1.374200	1.374200	1.374200	1.374200	1.374200	1.374200	1.374200	1.374200	1.374200	1.374200	1.374200	1.374200	1.374200	1.374200	1.374200	1.374200	1.374200	1.374200	1.374200	1.374200	1.374200	1.374200	1.374200	1.374200	1.374200	1.374200
-113.000000	1.395100	1.395100	1.395100	1.395100	1.395100	1.378200	1.395100	1.395100	1.395100	1.395100	1.395100	1.395100	1.395100	1.395100	1.395100	1.395100	1.395100	1.395100	1.395100	1.395100	1.395100	1.395100	1.395100	1.395100	1.395100	1.395100	1.395100	1.395100	1.395100	1.395100	1.395100	1.395100	1.395100	1.395100	1.395100	1.395100	1.395100	1.395100	1.395100
-112.000000	1.415300	1.415300	1.415300	1.415300	1.415300	1.398200	1.415300	1.415300	1.415300	1.415300	1.415300	1.415300	1.415300	1.415300	1.415300	1.415300	1.415300	1.415300	1.415300	1.415300	1.415300	1.415300	1.415300	1.415300	1.415300	1.415300	1.415300	1.415300	1.415300	1.415300	1.415300	1.415300	1.415300	1.415300	1.415300	1.415300	1.415300	1.415300	1.415300
-111.000000	1.434900	1.434900	1.434900	1.434900	1.434900	1.417400	1.434900	1.434900	1.434900	1.434900	1.434900	1.434900	1.434900	1.434900	1.434900	1.434900	1.434900	1.434900	1.434900	1.434900	1.434900	1.434900	1.434900	1.434900	1.434900	1.434900	1.434900	1.434900	1.434900	1.434900	1.434900	1.434900	1.434900	1.434900	1.434900	1.434900	1.434900	1.434900	1.434900
-110.000000	1.453600	1.453600	1.453600	1.453600	1.453600	1.436000	1.453600	1.453600	1.453600	1.453600	1.453600	1.453600	1.453600	1.453600	1.453600	1.453600	1.453600	1.453600	1.453600	1.453600	1.453600	1.453600	1.453600	1.453600	1.453600	1.453600	1.453600	1.453600	1.453600	1.453600	1.453600	1.453600	1.453600	1.453600	1.453600	1.453600	1.453600	1.453600	1.453600
-109.000000	1.471600	1.471600	1.471600	1.471600	1.471600	1.453800	1.471600	1.471600	1.471600	1.471600	1.471600	1.471600	1.471600	1.471600	1.471600	1.471600	1.471600	1.471600	1.471600	1.471600	1.471600	1.471600	1.471600	1.471600	1.471600	1.471600	1.471600	1.471600	1.471600	1.471600	1.471600	1.471600	1.471600	1.471600	1.471600	1.471600	1.471600	1.471600	1.471600
-108.000000	1.488900	1.488900	1.488900	1.488900	1.488900	1.470800	1.488900	1.488900	1.488900	1.488900	1.488900	1.488900	1.488900	1.488900	1.488900	1.488900	1.488900	1.488900	1.488900	1.488900	1.488900	1.488900	1.488900	1.488900	1.488900	1.488900	1.488900	1.488900	1.488900	1.488900	1.488900	1.488900	1.488900	1.488900	1.488900	1.488900	1.488900	1.488900	1.488900
-107.000000	1.505300	1.505300	1.505300	1.505300	1.505300	1.487000	1.505300	1.505300	1.505300	1.505300	1.505300	1.505300	1.505300	1.505300	1.505300	1.505300	1.505300	1.505300	1.505300	1.505300	1.505300	1.505300	1.505300	1.505300	1.505300	1.505300	1.505300	1.505300	1.505300	1.505300	1.505300	1.505300	1.505300	1.505300	1.505300	1.505300	1.505300	1.505300	1.505300
-106.000000	1.520800	1.520800	1.520800	1.520800	1.520800	1.502400	1.520800	1.520800	1.520800	1.520800	1.520800	1.520800	1.520800	1.520800	1.520800	1.520800	1.520800	1.520800	1.520800	1.520800	1.520800	1.520800	1.520800	1.520800	1.520800	1.520800	1.520800	1.520800	1.520800	1.520800	1.520800	1.520800	1.520800	1.520800	1.520800	1.520800	1.520800	1.520800	1.520800
-105.000000	1.535600	1.535600	1.535600	1.535600	1.535600	1.516900	1.535600	1.535600	1.535600	1.535600	1.535600	1.535600	1.535600	1.535600	1.535600	1.535600	1.535600	1.535600	1.535600	1.535600	1.535600	1.535600	1.535600	1.535600	1.535600	1.535600	1.535600	1.535600	1.535600	1.535600	1.535600	1.535600	1.535600	1.535600	1.535600	1.535600	1.535600	1.535600	1.535600
-104.000000	1.549400	1.549400	1.549400	1.549400	1.549400	1.530600	1.549400	1.549400	1.549400	1.549400	1.549400	1.549500	1.549500	1.549500	1.549500	1.549500	1.549500	1.549500	1.549500	1.549500	1.549500	1.549500	1.549500	1.549500	1.549500	1.549500	1.549500	1.549500	1.549500	1.549500	1.549500	1.549500	1.549500	1.549500	1.549500	1.549500	1.549500	1.549500	1.549500
-103.000000	1.562400	1.562400	1.562400	1.562400	1.562400	1.543500	1.562400	1.562400	1.562400	1.562400	1.562400	1.562400	1.562400	1.562400	1.562400	1.562400	1.562400	1.562400	1.562400	1.562400	1.562400	1.562400	1.562400	1.562400	1.562400	1.562400	1.562400	1.562400	1.562400	1.562400	1.562400	1.562400	1.562400	1.562400	1.562400	1.562400	1.562400	1.562400	1.562400
-102.000000	1.574500	1.574500	1.574500	1.574500	1.574500	1.555400	1.574500	1.574500	1.574500	1.574500	1.574500	1.574500	1.574500	1.574500	1.574500	1.574500	1.574500	1.574500	1.574500	1.574500	1.574500	1.574500	1.574500	1.574500	1.574500	1.574500	1.574500	1.574500	1.574500	1.574500	1.574500	1.574500	1.574500	1.574500	1.574500	1.574500	1.574500	1.574500	1.574500
-101.000000	1.585700	1.585700	1.585700	1.585700	1.585700	1.566400	1.585700	1.585700	1.585700	1.585700	1.585700	1.585700	1.585700	1.585700	1.585700	1.585700	1.585700	1.585700	1.585700	1.585700	1.585700	1.585700	1.585700	1.585700	1.585700	1.585700	1.585700	1.585700	1.585700	1.585700	1.585700	1.585700	1.585700	1.585700	1.585700	1.585700	1.585700	1.585700	1.585700
-100.000000	1.596000	1.596000	1.596000	1.596000	1.596000	1.576600	1.596000	1.596000	1.596000	1.596000	1.596000	1.596000	1.596000	1.596000	1.596000	1.596000	1.596000	1.596000	1.596000	1.596000	1.596000	1.596000	1.596000	1.596000	1.596000	1.596000	1.596000	1.596000	1.596000	1.596000	1.596000	1.596000	1.596000	1.596000	1.596000	1.596000	1.596000	1.596000	1.596000
-99.000000	1.605300	1.605300	1.605300	1.605300	1.605300	1.585800	1.605300	1.605300	1.605300	1.605300	1.605300	1.605300	1.605300	1.605300	1.605300	1.605300	1.605300	1.605300	1.605300	1.605300	1.605300	1.605300	1.605300	1.605300	1.605300	1.605300	1.605300	1.605300	1.605300	1.605300	1.605300	1.605300	1.605300	1.605300	1.605300	1.605300	1.605300	1.605300	1.605300
-98.000000	1.613600	1.613600	1.613600	1.613600	1.613600	1.594000	1.613600	1.613600	1.613600	1.613600	1.613600	1.613600	1.613600	1.613600	1.613600	1.613600	1.613600	1.613600	1.613600	1.613600	1.613600	1.613600	1.613600	1.613600	1.613600	1.613600	1.613600	1.613600	1.613600	1.613600	1.613600	1.613600	1.613600	1.613600	1.613600	1.613600	1.613600	1.613600	1.613600
-97.000000	1.621000	1.621000	1.621000	1.621000	1.621000	1.601300	1.621000	1.621000	1.621000	1.621000	1.621000	1.621000	1.621000	1.621000	1.621000	1.621000	1.621000	1.621000	1.621000	1.621000	1.621000	1.621000	1.621000	1.621000	1.621000	1.621000	1.621000	1.621000	1.621000	1.621000	1.621000	1.621000	1.621000	1.621000	1.621000	1.621000	1.621000	1.621000	1.621000
-96.000000	1.627500	1.627500	1.627500	1.627500	1.627500	1.607700	1.627500	1.627500	1.627500	1.627500	1.627500	1.627500	1.627500	1.627500	1.627500	1.627500	1.627500	1.627500	1.627500	1.627500	1.627500	1.627500	1.627500	1.627500	1.627500	1.627500	1.627500	1.627500	1.627500	1.627500	1.627500	1.627500	1.627500	1.627500	1.627500	1.627500	1.627500	1.627500	1.627500
-95.000000	1.632900	1.632900	1.632900	1.632900	1.632900	1.613100	1.632900	1.632900	1.632900	1.632900	1.632900	1.632900	1.632900	1.632900	1.632900	1.632900	1.632900	1.632900	1.632900	1.632900	1.632900	1.632900	1.632900	1.632900	1.632900	1.632900	1.632900	1.632900	1.632900	1.632900	1.632900	1.632900	1.632900	1.632900	1.632900	1.632900	1.632900	1.632900	1.632900
-94.000000	1.637400	1.637400	1.637400	1.637400	1.637400	1.617500	1.637400	1.637400	1.637400	1.637400	1.637400	1.637400	1.637400	1.637400	1.637400	1.637400	1.637400	1.637400	1.637400	1.637400	1.637400	1.637400	1.637400	1.637400	1.637400	1.637400	1.637400	1.637400	1.637400	1.637400	1.637400	1.637400	1.637400	1.637400	1.637400	1.637400	1.637400	1.637400	1.637400
-93.000000	1.640900	1.640900	1.640900	1.640900	1.640900	1.621000	1.640900	1.640900	1.640900	1.640900	1.640900	1.640900	1.640900	1.640900	1.640900	1.640900	1.640900	1.640900	1.640900	1.640900	1.640900	1.640900	1.640900	1.640900	1.640900	1.640900	1.640900	1.640900	1.640900	1.640900	1.640900	1.640900	1.640900	1.640900	1.640900	1.640900	1.640900	1.640900	1.640900
-92.000000	1.643400	1.643400	1.643400	1.643400	1.643400	1.623400	1.643400	1.643400	1.643400	1.643400	1.643400	1.643400	1.643400	1.643400	1.643400	1.643400	1.643400	1.643400	1.643400	1.643400	1.643400	1.643400	1.643400	1.643400	1.643400	1.643400	1.643400	1.643400	1.643400	1.643400	1.643400	1.643400	1.643400	1.643400	1.643400	1.643400	1.643400	1.643400	1.643400
-91.000000	1.644900	1.644900	1.644900	1.644900	1.644900	1.624900	1.644900	1.644900	1.644900	1.644900	1.644900	1.644900	1.644900	1.644900	1.644900	1.644900	1.644900	1.644900	1.644900	1.644900	1.644900	1.644900	1.644900	1.644900	1.644900	1.644900	1.644900	1.644900	1.644900	1.644900	1.644900	1.644900	1.644900	1.644900	1.644900	1.644900	1.644900	1.644900	1.644900
-90.000000	1.645400	1.645400	1.645400	1.645400	1.645400	1.625400	1.645400	1.645400	1.645400	1.645400	1.645400	1.645400	1.645400	1.645400	1.645400	1.645400	1.645400	1.645400	1.645400	1.645400	1.645400	1.645400	1.645400	1.645400	1.645400	1.645400	1.645400	1.645400	1.645400	1.645400	1.645400	1.645400	1.645400	1.645400	1.645400	1.645400	1.645400	1.645400	1.645400
-89.000000	1.644900	1.644900	1.644900	1.644900	1.644900	1.624900	1.644900	1.644900	1.644900	1.644900	1.644900	1.644900	1.644900	1.644900	1.644900	1.644900	1.644900	1.644900	1.644900	1.644900	1.644900	1.644900	1.644900	1.644900	1.644900	1.644900	1.644900	1.644900	1.644900	1.644900	1.644900	1.644900	1.644900	1.644900	1.644900	1.644900	1.644900	1.644900	1.644900
-88.000000	1.643400	1.643400	1.643400	1.643400	1.643400	1.623400	1.643400	1.643400	1.643400	1.643400	1.643400	1.643400	1.643400	1.643400	1.643400	1.643400	1.643400	1.643400	1.643400	1.643400	1.643400	1.643400	1.643400	1.643400	1.643400	1.643400	1.643400	1.643400	1.643400	1.643400	1.643400	1.643400	1.643400	1.643400	1.643400	1.643400	1.643400	1.643400	1.643400
-87.000000	1.640900	1.640900	1.640900	1.640900	1.640900	1.620900	1.640900	1.640900	1.640900	1.640900	1.640900	1.640900	1.640900	1.640900	1.640900	1.640900	1.640900	1.640900	1.640900	1.640900	1.640900	1.640900	1.640900	1.640900	1.640900	1.640900	1.640900	1.640900	1.640900	1.640900	1.640900	1.640900	1.640900	1.640900	1.640900	1.640900	1.640900	1.640900	1.640900
-86.000000	1.637400	1.637400	1.637400	1.637400	1.637400	1.617500	1.637400	1.637400	1.637400	1.637400	1.637400	1.637400	1.637400	1.637400	1.637400	1.637400	1.637400	1.637400	1.637400	1.637400	1.637400	1.637400	1.637400	1.637400	1.637400	1.637400	1.637400	1.637400	1.637400	1.637400	1.637400	1.637400	1.637400	1.637400	1.637400	1.637400	1.637400	1.637400	1.637400
-85.000000	1.632900	1.632900	1.632900	1.632900	1.632900	1.613100	1.632900	1.632900	1.632900	1.632900	1.632900	1.632900	1.632900	1.632900	1.632900	1.632900	1.632900	1.632900	1.632900	1.632900	1.632900	1.632900	1.632900	1.632900	1.632900	1.632900	1.632900	1.632900	1.632900	1.632900	1.632900	1.632900	1.632900	1.632900	1.632900	1.632900	1.632900	1.632900	1.632900
-84.000000	1.627500	1.627500	1.627500	1.627500	1.627500	1.607700	1.627500	1.627500	1.627500	1.627500	1.627500	1.627500	1.627500	1.627500	1.627500	1.627500	1.627500	1.627500	1.627500	1.627500	1.627500	1.627500	1.627500	1.627500	1.627500	1.627500	1.627500	1.627500	1.627500	1.627500	1.627500	1.627500	1.627500	1.627500	1.627500	1.627500	1.627500	1.627500	1.627500
-83.000000	1.621000	1.621000	1.621000	1.621000	1.621000	1.601300	1.621000	1.621000	1.621000	1.621000	1.621000	1.621000	1.621000	1.621000	1.621000	1.621000	1.621000	1.621000	1.621000	1.621000	1.621000	1.621000	1.621000	1.621000	1.621000	1.621000	1.621000	1.621000	1.621000	1.621000	1.621000	1.621000	1.621000	1.621000	1.621000	1.621000	1.621000	1.621000	1.621000
-82.000000	1.613600	1.613600	1.613600	1.613600	1.613600	1.594000	1.613600	1.613600	1.613600	1.613600	1.613600	1.613600	1.613600	1.613600	1.613600	1.613600	1.613600	1.613600	1.613600	1.613600	1.613600	1.613600	1.613600	1.613600	1.613600	1.613600	1.613600	1.613600	1.613600	1.613600	1.613600	1.613600	1.613600	1.613600	1.613600	1.613600	1.613600	1.613600	1.613600
-81.000000	1.605200	1.605200	1.605200	1.605200	1.605200	1.585700	1.605300	1.605300	1.605300	1.605300	1.605300	1.605300	1.605300	1.605300	1.605300	1.605300	1.605300	1.605300	1.605300	1.605300	1.605300	1.605300	1.605300	1.605300	1.605300	1.605300	1.605300	1.605300	1.605300	1.605300	1.605300	1.605300	1.605300	1.605300	1.605300	1.605300	1.605300	1.605300	1.605300
-80.000000	1.595900	1.595900	1.595900	1.595900	1.595900	1.576500	1.595900	1.595900	1.595900	1.595900	1.595900	1.595900	1.595900	1.595900	1.595900	1.595900	1.595900	1.595900	1.595900	1.595900	1.595900	1.595900	1.595900	1.595900	1.595900	1.595900	1.595900	1.595900	1.595900	1.595900	1.595900	1.595900	1.595900	1.595900	1.595900	1.595900	1.595900	1.595900	1.595900
-79.000000	1.585700	1.585700	1.585700	1.585700	1.585700	1.566400	1.585700	1.585700	1.585700	1.585700	1.585700	1.585700	1.585700	1.585700	1.585700	1.585700	1.585700	1.585700	1.585700	1.585700	1.585700	1.585700	1.585700	1.585700	1.585700	1.585700	1.585700	1.585700	1.585700	1.585700	1.585700	1.585700	1.585700	1.585700	1.585700	1.585700	1.585700	1.585700	1.585700
-78.000000	1.574500	1.574500	1.574500	1.574500	1.574500	1.555400	1.574500	1.574500	1.574500	1.574500	1.574500	1.574500	1.574500	1.574500	1.574500	1.574500	1.574500	1.574500	1.574500	1.574500	1.574500	1.574500	1.574500	1.574500	1.574500	1.574500	1.574500	1.574500	1.574500	1.574500	1.574500	1.574500	1.574500	1.574500	1.574500	1.574500	1.574500	1.574500	1.574500
-77.000000	1.562400	1.562400	1.562400	1.562400	1.562400	1.543400	1.562400	1.562400	1.562400	1.562400	1.562400	1.562400	1.562400	1.562400	1.562400	1.562400	1.562400	1.562400	1.562400	1.562400	1.562400	1.562400	1.562400	1.562400	1.562400	1.562400	1.562400	1.562400	1.562400	1.562400	1.562400	1.562400	1.562400	1.562400	1.562400	1.562400	1.562400	1.562400	1.562400
-76.000000	1.549400	1.549400	1.549400	1.549400	1.549400	1.530600	1.549400	1.549400	1.549400	1.549400	1.549400	1.549400	1.549400	1.549400	1.549400	1.549400	1.549400	1.549400	1.549400	1.549400	1.549400	1.549400	1.549400	1.549400	1.549400	1.549400	1.549400	1.549400	1.549400	1.549400	1.549400	1.549400	1.549400	1.549400	1.549400	1.549400	1.549400	1.549400	1.549400
-75.000000	1.535500	1.535500	1.535500	1.535500	1.535500	1.516900	1.535500	1.535500	1.535500	1.535500	1.535500	1.535500	1.535500	1.535500	1.535500	1.535500	1.535500	1.535500	1.535500	1.535500	1.535500	1.535500	1.535500	1.535500	1.535500	1.535500	1.535500	1.535500	1.535500	1.535500	1.535500	1.535500	1.535500	1.535500	1.535500	1.535500	1.535500	1.535500	1.535500
-74.000000	1.520800	1.520800	1.520800	1.520800	1.520800	1.502300	1.520800	1.520800	1.520800	1.520800	1.520800	1.520800	1.520800	1.520800	1.520800	1.520800	1.520800	1.520800	1.520800	1.520800	1.520800	1.520800	1.520800	1.520800	1.520800	1.520800	1.520800	1.520800	1.520800	1.520800	1.520800	1.520800	1.520800	1.520800	1.520800	1.520800	1.520800	1.520800	1.520800
-73.000000	1.505200	1.505200	1.505200	1.505200	1.505200	1.486900	1.505200	1.505200	1.505200	1.505200	1.505200	1.505200	1.505200	1.505200	1.505200	1.505200	1.505200	1.505200	1.505200	1.505200	1.505200	1.505200	1.505200	1.505200	1.505200	1.505200	1.505200	1.505200	1.505200	1.505200	1.505200	1.505200	1.505200	1.505200	1.505200	1.505200	1.505200	1.505200	1.505200
-72.000000	1.488800	1.488800	1.488800	1.488800	1.488800	1.470700	1.488800	1.488800	1.488800	1.488800	1.488800	1.488800	1.488800	1.488800	1.488800	1.488800	1.488800	1.488800	1.488800	1.488800	1.488800	1.488800	1.488800	1.488800	1.488800	1.488800	1.488800	1.488800	1.488800	1.488800	1.488800	1.488800	1.488800	1.488800	1.488800	1.488800	1.488800	1.488800	1.488800
-71.000000	1.471600	1.471600	1.471600	1.471600	1.471600	1.453700	1.471600	1.471600	1.471600	1.471600	1.471600	1.471600	1.471600	1.471600	1.471600	1.471600	1.471600	1.471600	1.471600	1.471600	1.471600	1.471600	1.471600	1.471600	1.471600	1.471600	1.471600	1.471600	1.471600	1.471600	1.471600	1.471600	1.471600	1.471600	1.471600	1.471600	1.471600	1.471600	1.471600
-70.000000	1.453600	1.453600	1.453600	1.453600	1.453600	1.435900	1.453600	1.453600	1.453600	1.453600	1.453600	1.453600	1.453600	1.453600	1.453600	1.453600	1.453600	1.453600	1.453600	1.453600	1.453600	1.453600	1.453600	1.453600	1.453600	1.453600	1.453600	1.453600	1.453600	1.453600	1.453600	1.453600	1.453600	1.453600	1.453600	1.453600	1.453600	1.453600	1.453600
-69.000000	1.434800	1.434800	1.434800	1.434800	1.434800	1.417400	1.434800	1.434800	1.434800	1.434800	1.434800	1.434800	1.434800	1.434800	1.434800	1.434800	1.434800	1.434800	1.434800	1.434800	1.434800	1.434800	1.434800	1.434800	1.434800	1.434800	1.434800	1.434800	1.434800	1.434800	1.434800	1.434800	1.434800	1.434800	1.434800	1.434800	1.434800	1.434800	1.434800
-68.000000	1.415300	1.415300	1.415300	1.415300	1.415300	1.398100	1.415300	1.415300	1.415300	1.415300	1.415300	1.415300	1.415300	1.415300	1.415300	1.415300	1.415300	1.415300	1.415300	1.415300	1.415300	1.415300	1.415300	1.415300	1.415300	1.415300	1.415300	1.415300	1.415300	1.415300	1.415300	1.415300	1.415300	1.415300	1.415300	1.415300	1.415300	1.415300	1.415300
-67.000000	1.395000	1.395000	1.395000	1.395000	1.395000	1.378100	1.395000	1.395000	1.395000	1.395000	1.395000	1.395000	1.395000	1.395000	1.395000	1.395000	1.395000	1.395000	1.395000	1.395000	1.395000	1.395000	1.395000	1.395000	1.395000	1.395000	1.395000	1.395000	1.395000	1.395000	1.395000	1.395000	1.395000	1.395000	1.395000	1.395000	1.395000	1.395000	1.395000
-66.000000	1.374100	1.374100	1.374100	1.374100	1.374100	1.357400	1.374100	1.374100	1.374100	1.374100	1.374100	1.374100	1.374100	1.374100	1.374100	1.374100	1.374100	1.374100	1.374100	1.374100	1.374100	1.374100	1.374100	1.374100	1.374100	1.374100	1.374100	1.374100	1.374100	1.374100	1.374100	1.374100	1.374100	1.374100	1.374100	1.374100	1.374100	1.374100	1.374100
-65.000000	1.352500	1.352500	1.352500	1.352500	1.352500	1.336100	1.352500	1.352500	1.352500	1.352500	1.352500	1.352500	1.352500	1.352500	1.352500	1.352500	1.352500	1.352500	1.352500	1.352500	1.352500	1.352500	1.352500	1.352500	1.352500	1.352500	1.352500	1.352500	1.352500	1.352500	1.352500	1.352500	1.352500	1.352500	1.352500	1.352500	1.352500	1.352500	1.352500
-64.000000	1.330300	1.330300	1.330300	1.330300	1.330300	1.314100	1.330300	1.330300	1.330300	1.330300	1.330300	1.330300	1.330300	1.330300	1.330300	1.330300	1.330300	1.330300	1.330300	1.330300	1.330300	1.330300	1.330300	1.330300	1.330300	1.330300	1.330300	1.330300	1.330300	1.330300	1.330300	1.330300	1.330300	1.330300	1.330300	1.330300	1.330300	1.330300	1.330300
-63.000000	1.307400	1.307400	1.307400	1.307400	1.307400	1.291500	1.307400	1.307400	1.307400	1.307400	1.307400	1.307400	1.307400	1.307400	1.307400	1.307400	1.307400	1.307400	1.307400	1.307400	1.307400	1.307400	1.307400	1.307400	1.307400	1.307400	1.307400	1.307400	1.307400	1.307400	1.307400	1.307400	1.307400	1.307400	1.307400	1.307400	1.307400	1.307400	1.307400
-62.000000	1.284000	1.284000	1.284000	1.284000	1.284000	1.268400	1.284000	1.284000	1.284000	1.284000	1.284000	1.284000	1.284000	1.284000	1.284000	1.284000	1.284000	1.284000	1.284000	1.284000	1.284000	1.284000	1.284000	1.284000	1.284000	1.284000	1.284000	1.284000	1.284000	1.284000	1.284000	1.284000	1.284000	1.284000	1.284000	1.284000	1.284000	1.284000	1.284000
-61.000000	1.260000	1.260000	1.260000	1.260000	1.260000	1.244700	1.260000	1.260000	1.260000	1.260000	1.260000	1.260000	1.260000	1.260000	1.260000	1.260000	1.260000	1.260000	1.260000	1.260000	1.260000	1.260000	1.260000	1.260000	1.260000	1.260000	1.260000	1.260000	1.260000	1.260000	1.260000	1.260000	1.260000	1.260000	1.260000	1.260000	1.260000	1.260000	1.260000
-60.000000	1.235400	1.235400	1.235400	1.235400	1.235400	1.220400	1.235400	1.235400	1.235400	1.235400	1.235400	1.235400	1.235400	1.235400	1.235400	1.235400	1.235400	1.235400	1.235400	1.235400	1.235400	1.235400	1.235400	1.235400	1.235400	1.235400	1.235400	1.235400	1.235400	1.235400	1.235400	1.235400	1.235400	1.235400	1.235400	1.235400	1.235400	1.235400	1.235400
-59.000000	1.210400	1.210400	1.210400	1.210400	1.210400	1.195700	1.210400	1.210400	1.210400	1.210400	1.210400	1.210400	1.210400	1.210400	1.210400	1.210400	1.210400	1.210400	1.210400	1.210400	1.210400	1.210400	1.210400	1.210400	1.210400	1.210400	1.210400	1.210400	1.210400	1.210400	1.210400	1.210400	1.210400	1.210400	1.210400	1.210400	1.210400	1.210400	1.210400
-58.000000	1.184900	1.184900	1.184900	1.184900	1.184900	1.170500	1.184900	1.184900	1.184900	1.184900	1.184900	1.184900	1.184900	1.184900	1.184900	1.184900	1.184900	1.184900	1.184900	1.184900	1.184900	1.184900	1.184900	1.184900	1.184900	1.184900	1.184900	1.184900	1.184900	1.184900	1.184900	1.184900	1.184900	1.184900	1.184900	1.184900	1.184900	1.184900	1.184900
-57.000000	1.158900	1.158900	1.158900	1.158900	1.159000	1.144900	1.159000	1.159000	1.159000	1.159000	1.159000	1.159000	1.159000	1.159000	1.159000	1.159000	1.159000	1.159000	1.159000	1.159000	1.159000	1.159000	1.159000	1.159000	1.159000	1.159000	1.159000	1.159000	1.159000	1.159000	1.159000	1.159000	1.159000	1.159000	1.159000	1.159000	1.159000	1.159000	1.159000
-56.000000	1.132600	1.132600	1.132600	1.132600	1.132600	1.118900	1.132600	1.132600	1.132600	1.132600	1.132600	1.132600	1.132600	1.132600	1.132600	1.132600	1.132600	1.132600	1.132600	1.132600	1.132600	1.132600	1.132600	1.132600	1.132600	1.132600	1.132600	1.132600	1.132600	1.132600	1.132600	1.132600	1.132600	1.132600	1.132600	1.132600	1.132600	1.132600	1.132600
-55.000000	1.105900	1.105900	1.105900	1.105900	1.105900	1.092500	1.105900	1.105900	1.105900	1.105900	1.105900	1.105900	1.105900	1.105900	1.105900	1.105900	1.105900	1.105900	1.105900	1.105900	1.105900	1.105900	1.105900	1.105900	1.105900	1.105900	1.105900	1.105900	1.105900	1.105900	1.105900	1.105900	1.105900	1.105900	1.105900	1.105900	1.105900	1.105900	1.105900
-54.000000	1.078800	1.078800	1.078800	1.078800	1.078800	1.065700	1.078800	1.078800	1.078800	1.078800	1.078800	1.078800	1.078800	1.078800	1.078800	1.078800	1.078800	1.078800	1.078800	1.078800	1.078800	1.078800	1.078800	1.078800	1.078800	1.078800	1.078800	1.078800	1.078800	1.078800	1.078800	1.078800	1.078800	1.078800	1.078800	1.078800	1.078800	1.078800	1.078800
-53.000000	1.051400	1.051400	1.051400	1.051400	1.051400	1.038700	1.051500	1.051500	1.051500	1.051500	1.051500	1.051500	1.051500	1.051500	1.051500	1.051500	1.051500	1.051500	1.051500	1.051500	1.051500	1.051500	1.051500	1.051500	1.051500	1.051500	1.051500	1.051500	1.051500	1.051500	1.051500	1.051500	1.051500	1.051500	1.051500	1.051500	1.051500	1.051500	1.051500
-52.000000	1.023800	1.023800	1.023800	1.023800	1.023800	1.011400	1.023800	1.023800	1.023800	1.023800	1.023800	1.023800	1.023800	1.023800	1.023800	1.023800	1.023800	1.023800	1.023800	1.023800	1.023800	1.023800	1.023800	1.023800	1.023800	1.023800	1.023800	1.023800	1.023800	1.023800	1.023800	1.023800	1.023800	1.023800	1.023800	1.023800	1.023800	1.023800	1.023800
-51.000000	0.995900	0.995900	0.995900	0.995900	0.995900	0.983800	0.995900	0.995900	0.995900	0.995900	0.995900	0.995900	0.995900	0.995900	0.995900	0.995900	0.995900	0.995900	0.995900	0.995900	0.995900	0.995900	0.995900	0.995900	0.995900	0.995900	0.995900	0.995900	0.995900	0.995900	0.995900	0.995900	0.995900	0.995900	0.995900	0.995900	0.995900	0.995900	0.995900
-50.000000	0.967800	0.967800	0.967800	0.967800	0.967800	0.956100	0.967800	0.967800	0.967800	0.967800	0.967800	0.967800	0.967800	0.967800	0.967800	0.967800	0.967800	0.967800	0.967800	0.967800	0.967800	0.967800	0.967800	0.967800	0.967800	0.967800	0.967800	0.967800	0.967800	0.967800	0.967800	0.967800	0.967800	0.967800	0.967800	0.967800	0.967800	0.967800	0.967800
-49.000000	0.939500	0.939500	0.939500	0.939500	0.939500	0.928100	0.939500	0.939500	0.939500	0.939500	0.939500	0.939500	0.939500	0.939500	0.939500	0.939500	0.939500	0.939500	0.939500	0.939500	0.939600	0.939600	0.939600	0.939600	0.939600	0.939600	0.939600	0.939600	0.939600	0.939600	0.939600	0.939600	0.939600	0.939600	0.939600	0.939600	0.939600	0.939600	0.939600
-48.000000	0.911100	0.911100	0.911100	0.911100	0.911100	0.900100	0.911100	0.911100	0.911100	0.911100	0.911100	0.911100	0.911100	0.911100	0.911100	0.911100	0.911100	0.911100	0.911100	0.911100	0.911100	0.911100	0.911100	0.911100	0.911100	0.911100	0.911100	0.911100	0.911100	0.911100	0.911100	0.911100	0.911100	0.911100	0.911100	0.911100	0.911100	0.911100	0.911100
-47.000000	0.882600	0.882600	0.882600	0.882600	0.882600	0.871900	0.882600	0.882600	0.882600	0.882600	0.882600	0.882600	0.882600	0.882600	0.882600	0.882600	0.882600	0.882600	0.882600	0.882600	0.882600	0.882600	0.882600	0.882600	0.882600	0.882600	0.882600	0.882600	0.882600	0.882600	0.882600	0.882600	0.882600	0.882600	0.882600	0.882600	0.882600	0.882600	0.882600
-46.000000	0.854000	0.854000	0.854000	0.854000	0.854000	0.843600	0.854000	0.854000	0.854000	0.854000	0.854000	0.854000	0.854000	0.854000	0.854000	0.854000	0.854000	0.854000	0.854000	0.854000	0.854000	0.854000	0.854000	0.854000	0.854000	0.854000	0.854000	0.854000	0.854000	0.854000	0.854000	0.854000	0.854000	0.854000	0.854000	0.854000	0.854000	0.854000	0.854000
-45.000000	0.825300	0.825300	0.825300	0.825300	0.825300	0.815400	0.825400	0.825400	0.825400	0.825400	0.825400	0.825400	0.825400	0.825400	0.825400	0.825400	0.825400	0.825400	0.825400	0.825400	0.825400	0.825400	0.825400	0.825400	0.825400	0.825400	0.825400	0.825400	0.825400	0.825400	0.825400	0.825400	0.825400	0.825400	0.825400	0.825400	0.825400	0.825400	0.825400
-44.000000	0.796700	0.796700	0.796700	0.796700	0.796700	0.787100	0.796700	0.796700	0.796700	0.796700	0.796700	0.796700	0.796700	0.796700	0.796800	0.796800	0.796800	0.796800	0.796800	0.796800	0.796800	0.796800	0.796800	0.796800	0.796800	0.796800	0.796800	0.796800	0.796800	0.796800	0.796800	0.796800	0.796800	0.796800	0.796800	0.796800	0.796800	0.796800	0.796800
-43.000000	0.768100	0.768100	0.768100	0.768100	0.768100	0.758800	0.768100	0.768100	0.768100	0.768100	0.768100	0.768100	0.768100	0.768100	0.768100	0.768200	0.768200	0.768200	0.768200	0.768200	0.768200	0.768200	0.768200	0.768200	0.768200	0.768200	0.768200	0.768200	0.768200	0.768200	0.768200	0.768200	0.768200	0.768200	0.768200	0.768200	0.768200	0.768200	0.768200
-42.000000	0.739600	0.739500	0.739500	0.739600	0.739600	0.730600	0.739600	0.739600	0.739600	0.739600	0.739600	0.739600	0.739600	0.739600	0.739600	0.739600	0.739600	0.739600	0.739600	0.739600	0.739600	0.739600	0.739600	0.739600	0.739600	0.739600	0.739600	0.739600	0.739600	0.739600	0.739600	0.739600	0.739600	0.739600	0.739600	0.739600	0.739600	0.739600	0.739600
-41.000000	0.711100	0.711100	0.711100	0.711100	0.711100	0.702500	0.711100	0.711100	0.711200	0.711200	0.711200	0.711200	0.711200	0.711200	0.711200	0.711200	0.711200	0.711200	0.711200	0.711200	0.711200	0.711200	0.711200	0.711200	0.711200	0.711200	0.711200	0.711200	0.711200	0.711200	0.711200	0.711200	0.711200	0.711200	0.711200	0.711200	0.711200	0.711200	0.711200
-40.000000	0.682800	0.682800	0.682800	0.682800	0.682800	0.674600	0.682800	0.682800	0.682900	0.682900	0.682900	0.682900	0.682900	0.682900	0.682900	0.682900	0.682900	0.682900	0.682900	0.682900	0.682900	0.682900	0.682900	0.682900	0.682900	0.682900	0.682900	0.682900	0.682900	0.682900	0.682900	0.682900	0.682900	0.682900	0.682900	0.682900	0.682900	0.682900	0.682900
-39.000000	0.654700	0.654600	0.654700	0.654700	0.654700	0.646800	0.654700	0.654700	0.654700	0.654700	0.654700	0.654700	0.654700	0.654700	0.654800	0.654800	0.654800	0.654800	0.654800	0.654800	0.654800	0.654800	0.654800	0.654800	0.654800	0.654800	0.654800	0.654800	0.654800	0.654800	0.654800	0.654800	0.654800	0.654800	0.654800	0.654800	0.654800	0.654800	0.654800
-38.000000	0.626700	0.626700	0.626700	0.626700	0.626700	0.619200	0.626800	0.626800	0.626800	0.626800	0.626800	0.626800	0.626800	0.626800	0.626800	0.626800	0.626800	0.626800	0.626800	0.626800	0.626800	0.626800	0.626800	0.626800	0.626800	0.626800	0.626800	0.626800	0.626800	0.626800	0.626900	0.626800	0.626900	0.626900	0.626900	0.626900	0.626900	0.626900	0.626900
-37.000000	0.599000	0.599000	0.599000	0.599000	0.599000	0.591800	0.599100	0.599100	0.599100	0.599100	0.599100	0.599100	0.599100	0.599100	0.599100	0.599100	0.599100	0.599100	0.599100	0.599100	0.599100	0.599100	0.599200	0.599200	0.599200	0.599200	0.599200	0.599200	0.599200	0.599200	0.599200	0.599200	0.599200	0.599200	0.599200	0.599200	0.599200	0.599200	0.599200
-36.000000	0.571600	0.571600	0.571600	0.571600	0.571600	0.564700	0.571600	0.571600	0.571700	0.571700	0.571700	0.571700	0.571700	0.571700	0.571700	0.571700	0.571700	0.571700	0.571700	0.571700	0.571700	0.571700	0.571700	0.571700	0.571700	0.571700	0.571700	0.571700	0.571700	0.571700	0.571700	0.571700	0.571700	0.571700	0.571700	0.571700	0.571700	0.571700	0.571700
-35.000000	0.544400	0.544400	0.544400	0.544400	0.544500	0.537900	0.544500	0.544500	0.544500	0.544500	0.544500	0.544600	0.544600	0.544600	0.544600	0.544600	0.544600	0.544600	0.544600	0.544600	0.544600	0.544600	0.544600	0.544600	0.544600	0.544600	0.544600	0.544600	0.544600	0.544600	0.544600	0.544600	0.544600	0.544600	0.544600	0.544600	0.544600	0.544600	0.544600
-34.000000	0.517600	0.517600	0.517600	0.517600	0.517600	0.511400	0.517700	0.517700	0.517700	0.517700	0.517700	0.517800	0.517800	0.517800	0.517800	0.517800	0.517800	0.517800	0.517800	0.517800	0.517800	0.517800	0.517800	0.517800	0.517800	0.517800	0.517800	0.517800	0.517800	0.517800	0.517800	0.517800	0.517800	0.517800	0.517800	0.517800	0.517800	0.517800	0.517800
-33.000000	0.491200	0.491100	0.491100	0.491200	0.491200	0.485300	0.491200	0.491300	0.491300	0.491300	0.491300	0.491300	0.491300	0.491300	0.491300	0.491300	0.491400	0.491400	0.491400	0.491400	0.491400	0.491400	0.491400	0.491400	0.491400	0.491400	0.491400	0.491400	0.491400	0.491400	0.491400	0.491400	0.491400	0.491400	0.491400	0.491400	0.491400	0.491400	0.491400
-32.000000	0.465100	0.465000	0.465100	0.465100	0.465100	0.459600	0.465200	0.465200	0.465200	0.465200	0.465300	0.465300	0.465300	0.465300	0.465300	0.465300	0.465300	0.465300	0.465300	0.465300	0.465300	0.465300	0.465300	0.465300	0.465300	0.465300	0.465300	0.465300	0.465300	0.465400	0.465400	0.465400	0.465400	0.465400	0.465400	0.465400	0.465400	0.465400	0.465400
-31.000000	0.439400	0.439400	0.439400	0.439400	0.439500	0.434200	0.439500	0.439500	0.439600	0.439600	0.439600	0.439600	0.439600	0.439700	0.439700	0.439700	0.439700	0.439700	0.439700	0.439700	0.439700	0.439700	0.439700	0.439700	0.439700	0.439700	0.439700	0.439700	0.439700	0.439700	0.439700	0.439700	0.439700	0.439700	0.439800	0.439800	0.439800	0.439800	0.439800
-30.000000	0.414200	0.414100	0.414200	0.414200	0.414200	0.409300	0.414300	0.414300	0.414400	0.414400	0.414400	0.414400	0.414500	0.414500	0.414500	0.414500	0.414500	0.414500	0.414500	0.414500	0.414500	0.414500	0.414500	0.414500	0.414500	0.414500	0.414500	0.414500	0.414500	0.414600	0.414600	0.414600	0.414600	0.414600	0.414600	0.414600	0.414600	0.414600	0.414600
-29.000000	0.389400	0.389300	0.389400	0.389400	0.389500	0.384900	0.389600	0.389600	0.389600	0.389700	0.389700	0.389700	0.389700	0.389700	0.389800	0.389800	0.389800	0.389800	0.389800	0.389800	0.389800	0.389800	0.389800	0.389800	0.389800	0.389800	0.389800	0.389800	0.389800	0.389800	0.389900	0.389800	0.389900	0.389900	0.389900	0.389900	0.389900	0.389900	0.389900
-28.000000	0.365100	0.365000	0.365100	0.365100	0.365200	0.360900	0.365300	0.365300	0.365400	0.365400	0.365400	0.365500	0.365500	0.365500	0.365500	0.365500	0.365600	0.365600	0.365600	0.365600	0.365600	0.365600	0.365600	0.365600	0.365600	0.365600	0.365600	0.365600	0.365600	0.365600	0.365600	0.365600	0.365700	0.365700	0.365700	0.365700	0.365700	0.365700	0.365700
-27.000000	0.341300	0.341200	0.341300	0.341300	0.341400	0.337400	0.341600	0.341600	0.341600	0.341700	0.341700	0.341700	0.341800	0.341800	0.341800	0.341800	0.341800	0.341800	0.341900	0.341900	0.341900	0.341900	0.341900	0.341900	0.341900	0.341900	0.341900	0.341900	0.341900	0.341900	0.341900	0.341900	0.342000	0.342000	0.342000	0.342000	0.342000	0.342000	0.342000
-26.000000	0.318000	0.317900	0.317900	0.318000	0.318100	0.314400	0.318300	0.318300	0.318400	0.318500	0.318500	0.318500	0.318600	0.318600	0.318600	0.318600	0.318600	0.318700	0.318700	0.318700	0.318700	0.318700	0.318700	0.318700	0.318700	0.318700	0.318700	0.318700	0.318700	0.318800	0.318800	0.318800	0.318800	0.318800	0.318800	0.318800	0.318800	0.318800	0.318800
-25.000000	0.295200	0.295000	0.295100	0.295200	0.295300	0.291900	0.295600	0.295600	0.295700	0.295800	0.295800	0.295800	0.295900	0.295900	0.295900	0.296000	0.296000	0.296000	0.296000	0.296000	0.296000	0.296000	0.296100	0.296100	0.296100	0.296100	0.296100	0.296100	0.296100	0.296100	0.296100	0.296100	0.296200	0.296200	0.296200	0.296200	0.296200	0.296200	0.296200
-24.000000	0.272900	0.272600	0.272800	0.272800	0.273000	0.269900	0.273300	0.273400	0.273500	0.273600	0.273600	0.273600	0.273700	0.273700	0.273800	0.273800	0.273800	0.273900	0.273900	0.273900	0.273900	0.273900	0.273900	0.274000	0.274000	0.274000	0.274000	0.274000	0.274000	0.274000	0.274000	0.274000	0.274100	0.274100	0.274100	0.274100	0.274100	0.274100	0.274100
-23.000000	0.251000	0.250700	0.250800	0.251000	0.251200	0.248400	0.251500	0.251600	0.251800	0.251900	0.251900	0.252000	0.252000	0.252100	0.252100	0.252200	0.252200	0.252200	0.252200	0.252300	0.252300	0.252300	0.252300	0.252400	0.252400	0.252400	0.252400	0.252400	0.252400	0.252400	0.252500	0.252400	0.252500	0.252500	0.252500	0.252500	0.252600	0.252600	0.252500
-22.000000	0.229500	0.229100	0.229300	0.229400	0.229700	0.227300	0.230200	0.230300	0.230500	0.230600	0.230700	0.230700	0.230800	0.230900	0.231000	0.231000	0.231000	0.231100	0.231100	0.231100	0.231200	0.231200	0.231200	0.231300	0.231300	0.231300	0.231300	0.231300	0.231300	0.231300	0.231400	0.231300	0.231400	0.231500	0.231500	0.231500	0.231500	0.231500	0.231500
-21.000000	0.208200	0.207700	0.207900	0.208200	0.208500	0.206400	0.209200	0.209300	0.209500	0.209700	0.209800	0.209900	0.210000	0.210100	0.210200	0.210300	0.210300	0.210300	0.210400	0.210400	0.210500	0.210500	0.210500	0.210600	0.210600	0.210600	0.210700	0.210700	0.210700	0.210700	0.210700	0.210700	0.210800	0.210800	0.210900	0.210900	0.210900	0.210900	0.210900
-20.000000	0.187100	0.186300	0.186700	0.186900	0.187500	0.185800	0.188300	0.188500	0.188800	0.189100	0.189200	0.189300	0.189500	0.189600	0.189700	0.189800	0.189900	0.189900	0.190000	0.190000	0.190100	0.190100	0.190200	0.190200	0.190300	0.190300	0.190300	0.190300	0.190300	0.190400	0.190400	0.190400	0.190500	0.190600	0.190600	0.190600	0.190600	0.190600	0.190600
-19.000000	0.165700	0.164600	0.165100	0.165500	0.166200	0.165000	0.167400	0.167600	0.168100	0.168400	0.168600	0.168800	0.169000	0.169200	0.169300	0.169400	0.169500	0.169600	0.169700	0.169700	0.169800	0.169900	0.170000	0.170000	0.170100	0.170100	0.170200	0.170100	0.170200	0.170200	0.170300	0.170200	0.170400	0.170500	0.170500	0.170600	0.170600	0.170600	0.170600
-18.000000	0.143600	0.142100	0.142800	0.143400	0.144400	0.143600	0.146100	0.146300	0.147000	0.147500	0.147700	0.147900	0.148200	0.148500	0.148700	0.148900	0.149000	0.149100	0.149200	0.149300	0.149400	0.149500	0.149600	0.149700	0.149800	0.149900	0.149900	0.149900	0.149900	0.150000	0.150100	0.150000	0.150200	0.150300	0.150400	0.150500	0.150500	0.150500	0.150400
-17.000000	0.120200	0.118100	0.119100	0.119900	0.121300	0.121300	0.123700	0.124100	0.125100	0.125700	0.126000	0.126300	0.126800	0.127200	0.127400	0.127700	0.127800	0.128000	0.128100	0.128200	0.128400	0.128600	0.128700	0.128800	0.129000	0.129000	0.129100	0.129100	0.129100	0.129200	0.129300	0.129200	0.129600	0.129700	0.129800	0.129900	0.129900	0.129900	0.129900
-16.000000	0.095100	0.092300	0.093700	0.094700	0.096600	0.097300	0.099900	0.100300	0.101700	0.102500	0.103000	0.103400	0.104000	0.104600	0.104900	0.105300	0.105500	0.105700	0.105900	0.106100	0.106300	0.106500	0.106700	0.106900	0.107100	0.107200	0.107300	0.107200	0.107300	0.107400	0.107600	0.107400	0.108000	0.108100	0.108300	0.108400	0.108400	0.108400	0.108400
-15.000000	0.068800	0.065500	0.067000	0.068300	0.070500	0.071800	0.074500	0.075000	0.076800	0.077800	0.078400	0.079000	0.079800	0.080400	0.080900	0.081300	0.081700	0.081900	0.082100	0.082400	0.082700	0.083000	0.083200	0.083500	0.083700	0.083900	0.084000	0.083900	0.084000	0.084200	0.084400	0.084200	0.084900	0.085100	0.085300	0.085500	0.085500	0.085500	0.085400
-14.000000	0.044200	0.041300	0.042600	0.043700	0.045800	0.047300	0.049600	0.050200	0.052000	0.053100	0.053700	0.054300	0.055200	0.055900	0.056400	0.056900	0.057300	0.057600	0.057800	0.058100	0.058400	0.058700	0.059100	0.059300	0.059600	0.059800	0.059900	0.059900	0.059900	0.060200	0.060400	0.060200	0.061000	0.061200	0.061500	0.061600	0.061700	0.061700	0.061600
-13.000000	0.026600	0.025000	0.025700	0.026400	0.027600	0.028700	0.030200	0.030500	0.031800	0.032700	0.033100	0.033600	0.034200	0.034800	0.035300	0.035600	0.035900	0.036200	0.036400	0.036600	0.036900	0.037200	0.037400	0.037700	0.037900	0.038100	0.038200	0.038100	0.038200	0.038400	0.038600	0.038400	0.039100	0.039300	0.039600	0.039700	0.039800	0.039800	0.039700
-12.000000	0.018300	0.017700	0.018000	0.018200	0.018700	0.019100	0.019600	0.019800	0.020400	0.020700	0.020900	0.021200	0.021500	0.021800	0.022000	0.022200	0.022300	0.022400	0.022600	0.022700	0.022800	0.023000	0.023100	0.023300	0.023400	0.023500	0.023500	0.023500	0.023500	0.023700	0.023800	0.023700	0.024100	0.024200	0.024300	0.024400	0.024400	0.024400	0.024400
-11.000000	0.015900	0.015800	0.015800	0.015900	0.015900	0.016000	0.016100	0.016200	0.016300	0.016400	0.016400	0.016500	0.016600	0.016600	0.016700	0.016700	0.016800	0.016800	0.016800	0.016900	0.016900	0.017000	0.017000	0.017100	0.017100	0.017100	0.017100	0.017100	0.017100	0.017200	0.017200	0.017200	0.017300	0.017300	0.017400	0.017400	0.017400	0.017400	0.017400
-10.000000	0.024500	0.021500	0.019100	0.017500	0.016400	0.015400	0.014600	0.014000	0.013600	0.013300	0.012900	0.012600	0.012300	0.012100	0.012000	0.011900	0.011700	0.011600	0.011400	0.011300	0.011200	0.011100	0.011000	0.010900	0.010900	0.010800	0.010700	0.010700	0.010600	0.010600	0.010500	0.010400	0.010300	0.010300	0.010200	0.010200	0.010100	0.010100	0.010100
-9.500000	0.024000	0.020500	0.018000	0.016600	0.015300	0.014400	0.013800	0.013300	0.012800	0.012400	0.012100	0.011900	0.011800	0.011600	0.011400	0.011200	0.011100	0.011000	0.010900	0.010800	0.010700	0.010700	0.010500	0.010400	0.010400	0.010300	0.010200	0.010100	0.010100	0.010100	0.010000	0.010000	0.009900	0.009900	0.009900	0.009800	0.009800	0.009800	0.009700
-9.000000	0.023300	0.019300	0.017100	0.015500	0.014400	0.013600	0.013000	0.012500	0.012100	0.011900	0.011600	0.011400	0.011100	0.011000	0.010800	0.010700	0.010600	0.010500	0.010400	0.010300	0.010200	0.010100	0.010100	0.010000	0.010000	0.009900	0.009900	0.009800	0.009800	0.009700	0.009600	0.009600	0.009500	0.009500	0.009500	0.009400	0.009400	0.009400	0.009400
-8.500000	0.022400	0.018400	0.016200	0.014600	0.013600	0.012900	0.012300	0.011900	0.011600	0.011300	0.011000	0.010800	0.010700	0.010600	0.010400	0.010300	0.010200	0.010000	0.009900	0.009900	0.009800	0.009800	0.009700	0.009600	0.009600	0.009500	0.009400	0.009400	0.009400	0.009300	0.009300	0.009300	0.009300	0.009200	0.009200	0.009200	0.009100	0.009100	0.009100
-8.000000	0.021500	0.017500	0.015200	0.013800	0.012900	0.012200	0.011800	0.011400	0.011000	0.010800	0.010600	0.010400	0.010300	0.010100	0.010000	0.009900	0.009800	0.009800	0.009700	0.009600	0.009500	0.009400	0.009300	0.009300	0.009200	0.009200	0.009100	0.009100	0.009100	0.009100	0.009000	0.008900	0.008900	0.008800	0.008800	0.008800	0.008700	0.008700	0.008700
-7.500000	0.020600	0.016700	0.014400	0.013100	0.012200	0.011700	0.011300	0.010900	0.010700	0.010500	0.010200	0.010000	0.009950	0.009800	0.009700	0.009600	0.009500	0.009400	0.009300	0.009200	0.009200	0.009100	0.009100	0.009000	0.009000	0.008900	0.008800	0.008800	0.008700	0.008700	0.008700	0.008600	0.008600	0.008600	0.008600	0.008500	0.008500	0.008500	0.008500
-7.000000	0.019800	0.015700	0.013800	0.012500	0.011800	0.011300	0.010800	0.010600	0.010300	0.010000	0.009900	0.009700	0.009600	0.009500	0.009300	0.009200	0.009100	0.009100	0.009000	0.008900	0.008900	0.008800	0.008700	0.008700	0.008600	0.008600	0.008500	0.008500	0.008500	0.008500	0.008500	0.008400	0.008400	0.008300	0.008300	0.008300	0.008200	0.008200	0.008200
-6.500000	0.019100	0.015000	0.013200	0.012100	0.011400	0.010900	0.010500	0.010200	0.009900	0.009700	0.009600	0.009400	0.009300	0.009100	0.009000	0.009000	0.008900	0.008800	0.008700	0.008600	0.008600	0.008500	0.008500	0.008450	0.008400	0.008400	0.008300	0.008300	0.008200	0.008200	0.008200	0.008100	0.008100	0.008000	0.008000	0.008000	0.008000	0.008000	0.008000
-6.000000	0.018300	0.014400	0.012600	0.011700	0.011000	0.010500	0.010100	0.009800	0.009600	0.009450	0.009300	0.009100	0.009000	0.008900	0.008800	0.008700	0.008600	0.008500	0.008500	0.008400	0.008400	0.008300	0.008300	0.008200	0.008200	0.008100	0.008100	0.008000	0.008000	0.008000	0.007900	0.007900	0.007900	0.007900	0.007900	0.007800	0.007800	0.007800	0.007700
-5.500000	0.017600	0.013900	0.012300	0.011300	0.010700	0.010200	0.009800	0.009600	0.009400	0.009200	0.009000	0.008900	0.008800	0.008700	0.008500	0.008400	0.008400	0.008300	0.008300	0.008200	0.008100	0.008100	0.008000	0.008000	0.008000	0.007900	0.007900	0.007800	0.007800	0.007800	0.007800	0.007700	0.007700	0.007700	0.007600	0.007600	0.007600	0.007500	0.007500
-5.000000	0.016900	0.013400	0.011900	0.011000	0.010400	0.009900	0.009600	0.009400	0.009100	0.008900	0.008800	0.008700	0.008500	0.008400	0.008300	0.008300	0.008200	0.008100	0.008100	0.008000	0.007900	0.007900	0.007800	0.007800	0.007800	0.007750	0.007700	0.007700	0.007600	0.007600	0.007500	0.007500	0.007500	0.007500	0.007450	0.007400	0.007400	0.007400	0.007400
-4.500000	0.016200	0.013000	0.011500	0.010750	0.010100	0.009700	0.009400	0.009100	0.008900	0.008750	0.008600	0.008500	0.008300	0.008300	0.008200	0.008100	0.008000	0.007900	0.007900	0.007800	0.007800	0.007700	0.007700	0.007700	0.007600	0.007600	0.007500	0.007500	0.007400	0.007400	0.007400	0.007400	0.007400	0.007300	0.007300	0.007300	0.007250	0.007200	0.007200
-4.000000	0.015600	0.012700	0.011300	0.010500	0.009900	0.009500	0.009200	0.009000	0.008800	0.008600	0.008400	0.008300	0.008200	0.008100	0.008050	0.007900	0.007800	0.007800	0.007700	0.007700	0.007700	0.007600	0.007500	0.007500	0.007400	0.007400	0.007400	0.007300	0.007300	0.007300	0.007300	0.007200	0.007200	0.007200	0.007100	0.007100	0.007100	0.007100	0.007100
-3.500000	0.015300	0.012400	0.011100	0.010300	0.009800	0.009300	0.009000	0.008850	0.008600	0.008400	0.008300	0.008200	0.008100	0.007900	0.007900	0.007800	0.007700	0.007700	0.007600	0.007500	0.007500	0.007400	0.007400	0.007300	0.007300	0.007300	0.007300	0.007200	0.007200	0.007200	0.007100	0.007100	0.007100	0.007000	0.007000	0.007000	0.007000	0.007000	0.007000
-3.000000	0.014900	0.012200	0.010900	0.010100	0.009600	0.009200	0.008900	0.008700	0.008500	0.008300	0.008200	0.008100	0.007900	0.007800	0.007800	0.007700	0.007600	0.007500	0.007500	0.007400	0.007400	0.007300	0.007300	0.007300	0.007200	0.007200	0.007100	0.007100	0.007100	0.007000	0.007000	0.007000	0.007000	0.007000	0.006900	0.006900	0.006900	0.006900	0.006800
-2.500000	0.014600	0.012000	0.010700	0.010000	0.009500	0.009200	0.008800	0.008600	0.008400	0.008200	0.008100	0.007900	0.007900	0.007800	0.007700	0.007600	0.007500	0.007400	0.007400	0.007300	0.007300	0.007300	0.007200	0.007200	0.007100	0.007100	0.007000	0.007000	0.007000	0.007000	0.006900	0.006900	0.006900	0.006900	0.006800	0.006800	0.006800	0.006800	0.006700
-2.000000	0.014300	0.011900	0.010600	0.009900	0.009400	0.009000	0.008700	0.008500	0.008300	0.008100	0.008000	0.007900	0.007800	0.007700	0.007600	0.007500	0.007400	0.007400	0.007400	0.007300	0.007200	0.007100	0.007100	0.007100	0.007000	0.007000	0.007000	0.007000	0.006900	0.006900	0.006800	0.006800	0.006800	0.006800	0.006800	0.006700	0.006700	0.006700	0.006700
-1.500000	0.014200	0.011800	0.010600	0.009800	0.009400	0.008900	0.008700	0.008400	0.008200	0.008100	0.007900	0.007800	0.007700	0.007600	0.007500	0.007500	0.007400	0.007300	0.007300	0.007200	0.007100	0.007100	0.007100	0.007000	0.007000	0.007000	0.006900	0.006900	0.006900	0.006800	0.006800	0.006800	0.006700	0.006700	0.006700	0.006700	0.006700	0.006700	0.006700
-1.000000	0.014100	0.011700	0.010500	0.009800	0.009300	0.008900	0.008600	0.008400	0.008200	0.008100	0.007900	0.007800	0.007600	0.007600	0.007500	0.007400	0.007300	0.007200	0.007200	0.007100	0.007100	0.007100	0.007100	0.007000	0.006900	0.006900	0.006900	0.006800	0.006800	0.006800	0.006800	0.006750	0.006700	0.006700	0.006700	0.006600	0.006600	0.006600	0.006600
-0.500000	0.014000	0.011600	0.010400	0.009800	0.009200	0.008900	0.008600	0.008400	0.008200	0.008000	0.007900	0.007700	0.007600	0.007500	0.007500	0.007400	0.007300	0.007200	0.007200	0.007100	0.007100	0.007000	0.007000	0.007000	0.006900	0.006900	0.006800	0.006800	0.006800	0.006800	0.006700	0.006700	0.006700	0.006700	0.006600	0.006600	0.006600	0.006600	0.006600
0.000000	0.014000	0.011600	0.010400	0.009800	0.009200	0.008900	0.008600	0.008400	0.008200	0.008000	0.007800	0.007800	0.007700	0.007500	0.007400	0.007300	0.007300	0.007300	0.007200	0.007100	0.007100	0.007000	0.007000	0.006900	0.006900	0.006900	0.006800	0.006800	0.006800	0.006700	0.006700	0.006700	0.006700	0.006600	0.006600	0.006600	0.006600	0.006600	0.006600
0.500000	0.014000	0.011600	0.010400	0.009800	0.009200	0.008900	0.008600	0.008400	0.008200	0.008000	0.007900	0.007700	0.007600	0.007500	0.007500	0.007400	0.007300	0.007200	0.007200	0.007100	0.007100	0.007000	0.007000	0.007000	0.006900	0.006900	0.006800	0.006800	0.006800	0.006800	0.006700	0.006700	0.006700	0.006700	0.006600	0.006600	0.006600	0.006600	0.006600
1.000000	0.014100	0.011700	0.010500	0.009800	0.009300	0.008900	0.008600	0.008400	0.008200	0.008100	0.007900	0.007800	0.007600	0.007600	0.007500	0.007400	0.007300	0.007200	0.007200	0.007100	0.007100	0.007100	0.007100	0.007000	0.006900	0.006900	0.006900	0.006800	0.006800	0.006800	0.006800	0.006750	0.006700	0.006700	0.006700	0.006600	0.006600	0.006600	0.006600
1.500000	0.014200	0.011800	0.010600	0.009800	0.009400	0.008900	0.008700	0.008400	0.008200	0.008100	0.007900	0.007800	0.007700	0.007600	0.007500	0.007500	0.007400	0.007300	0.007300	0.007200	0.007100	0.007100	0.007100	0.007000	0.007000	0.007000	0.006900	0.006900	0.006900	0.006800	0.006800	0.006800	0.006700	0.006700	0.006700	0.006700	0.006700	0.006700	0.006700
2.000000	0.014300	0.011900	0.010600	0.009900	0.009400	0.009000	0.008700	0.008500	0.008300	0.008100	0.008000	0.007900	0.007800	0.007700	0.007600	0.007500	0.007400	0.007400	0.007400	0.007300	0.007200	0.007100	0.007100	0.007100	0.007000	0.007000	0.007000	0.007000	0.006900	0.006900	0.006800	0.006800	0.006800	0.006800	0.006800	0.006700	0.006700	0.006700	0.006700
2.500000	0.014600	0.012000	0.010700	0.010000	0.009500	0.009100	0.008800	0.008600	0.008400	0.008200	0.008100	0.007900	0.007900	0.007800	0.007700	0.007600	0.007500	0.007400	0.007400	0.007300	0.007300	0.007300	0.007200	0.007200	0.007100	0.007100	0.007000	0.007000	0.007000	0.007000	0.006900	0.006900	0.006900	0.006900	0.006800	0.006800	0.006800	0.006800	0.006700
3.000000	0.014900	0.012200	0.010900	0.010100	0.009600	0.009200	0.008900	0.008700	0.008500	0.008300	0.008200	0.008100	0.007900	0.007800	0.007800	0.007700	0.007600	0.007500	0.007500	0.007400	0.007400	0.007300	0.007300	0.007300	0.007200	0.007200	0.007100	0.007100	0.007100	0.007000	0.007000	0.007000	0.007000	0.007000	0.006900	0.006900	0.006900	0.006900	0.006800
3.500000	0.015300	0.012400	0.011100	0.010300	0.009800	0.009300	0.009000	0.008850	0.008600	0.008400	0.008300	0.008200	0.008100	0.007900	0.007900	0.007800	0.007700	0.007700	0.007600	0.007500	0.007500	0.007400	0.007400	0.007300	0.007300	0.007300	0.007300	0.007200	0.007200	0.007200	0.007100	0.007100	0.007100	0.007000	0.007000	0.007000	0.007000	0.007000	0.007000
4.000000	0.015600	0.012700	0.011300	0.010500	0.009900	0.009500	0.009200	0.009000	0.008800	0.008600	0.008400	0.008300	0.008200	0.008100	0.008050	0.007900	0.007800	0.007800	0.007700	0.007700	0.007700	0.007600	0.007500	0.007500	0.007400	0.007400	0.007400	0.007300	0.007300	0.007300	0.007300	0.007200	0.007200	0.007200	0.007100	0.007100	0.007100	0.007100	0.007100
4.500000	0.016200	0.013000	0.011500	0.010750	0.010100	0.009700	0.009400	0.009100	0.008900	0.008750	0.008600	0.008500	0.008300	0.008300	0.008200	0.008100	0.008000	0.007900	0.007900	0.007800	0.007800	0.007700	0.007700	0.007700	0.007600	0.007600	0.007500	0.007500	0.007400	0.007400	0.007400	0.007400	0.007400	0.007300	0.007300	0.007300	0.007300	0.007200	0.007200
5.000000	0.016900	0.013400	0.011900	0.011000	0.010400	0.009900	0.009600	0.009400	0.009100	0.008900	0.008800	0.008700	0.008500	0.008400	0.008300	0.008300	0.008200	0.008100	0.008100	0.008000	0.007900	0.007900	0.007800	0.007800	0.007800	0.007750	0.007700	0.007700	0.007600	0.007600	0.007500	0.007500	0.007500	0.007500	0.007400	0.007400	0.007400	0.007400	0.007400
5.500000	0.017600	0.013900	0.012300	0.011300	0.010700	0.010200	0.009800	0.009600	0.009400	0.009200	0.009000	0.008900	0.008800	0.008700	0.008500	0.008400	0.008400	0.008300	0.008300	0.008200	0.008100	0.008100	0.008000	0.008000	0.008000	0.007900	0.007900	0.007800	0.007800	0.007800	0.007800	0.007700	0.007700	0.007700	0.007600	0.007600	0.007600	0.007500	0.007500
6.000000	0.018300	0.014400	0.012600	0.011700	0.011000	0.010500	0.010100	0.009800	0.009600	0.009450	0.009300	0.009100	0.009000	0.008900	0.008800	0.008700	0.008600	0.008500	0.008500	0.008400	0.008400	0.008300	0.008300	0.008200	0.008200	0.008100	0.008100	0.008000	0.008000	0.008000	0.007900	0.007900	0.007900	0.007900	0.007900	0.007800	0.007800	0.007800	0.007700
6.500000	0.019100	0.015050	0.013200	0.012100	0.011400	0.010900	0.010500	0.010200	0.009900	0.009700	0.009600	0.009400	0.009300	0.009100	0.009000	0.009000	0.008900	0.008800	0.008700	0.008600	0.008600	0.008500	0.008500	0.008400	0.008400	0.008400	0.008300	0.008300	0.008200	0.008200	0.008200	0.008100	0.008100	0.008000	0.008000	0.008000	0.008000	0.008000	0.008000
7.000000	0.019800	0.015700	0.013800	0.012500	0.011800	0.011300	0.010800	0.010600	0.010300	0.010000	0.009900	0.009700	0.009600	0.009500	0.009300	0.009200	0.009100	0.009100	0.009000	0.008900	0.008900	0.008800	0.008700	0.008700	0.008600	0.008600	0.008500	0.008500	0.008500	0.008500	0.008500	0.008400	0.008400	0.008300	0.008300	0.008300	0.008200	0.008200	0.008200
7.500000	0.020600	0.016700	0.014500	0.013100	0.012200	0.011700	0.011200	0.010900	0.010700	0.010500	0.010200	0.010000	0.009950	0.009800	0.009700	0.009600	0.009500	0.009400	0.009300	0.009200	0.009200	0.009100	0.009100	0.009000	0.009000	0.008900	0.008800	0.008800	0.008700	0.008700	0.008700	0.008600	0.008600	0.008600	0.008600	0.008500	0.008500	0.008500	0.008500
8.000000	0.021500	0.017500	0.015200	0.013800	0.012900	0.012200	0.011800	0.011400	0.011000	0.010800	0.010600	0.010400	0.010300	0.010100	0.010000	0.009900	0.009800	0.009800	0.009700	0.009600	0.009500	0.009400	0.009300	0.009300	0.009200	0.009200	0.009100	0.009100	0.009100	0.009100	0.009000	0.008900	0.008900	0.008800	0.008800	0.008800	0.008700	0.008700	0.008700
8.500000	0.022400	0.018400	0.016200	0.014600	0.013600	0.012900	0.012300	0.011900	0.011600	0.011300	0.011000	0.010800	0.010700	0.010600	0.010400	0.010300	0.010200	0.010000	0.009900	0.009900	0.009800	0.009800	0.009700	0.009600	0.009600	0.009500	0.009400	0.009400	0.009400	0.009300	0.009300	0.009300	0.009300	0.009200	0.009200	0.009200	0.009100	0.009100	0.009100
9.000000	0.023200	0.019300	0.017100	0.015500	0.014400	0.013600	0.013000	0.012500	0.012100	0.011900	0.011600	0.011400	0.011100	0.011000	0.010800	0.010700	0.010600	0.010500	0.010400	0.010300	0.010200	0.010100	0.010100	0.010000	0.010000	0.009900	0.009900	0.009800	0.009800	0.009700	0.009600	0.009600	0.009500	0.009500	0.009500	0.009400	0.009400	0.009400	0.009400
9.500000	0.023900	0.020400	0.018000	0.016600	0.015300	0.014400	0.013800	0.013300	0.012800	0.012400	0.012100	0.011900	0.011800	0.011600	0.011400	0.011200	0.011100	0.011000	0.010900	0.010800	0.010700	0.010700	0.010500	0.010400	0.010400	0.010300	0.010200	0.010100	0.010100	0.010100	0.010000	0.010000	0.009900	0.009900	0.009900	0.009800	0.009800	0.009800	0.009700
10.000000	0.024400	0.021400	0.019100	0.017500	0.016400	0.015400	0.014600	0.014000	0.013600	0.013300	0.012900	0.012600	0.012300	0.012100	0.012000	0.011900	0.011700	0.011600	0.011400	0.011300	0.011200	0.011100	0.011000	0.010900	0.010900	0.010800	0.010700	0.010700	0.010600	0.010600	0.010500	0.010400	0.010300	0.010300	0.010200	0.010200	0.010100	0.010100	0.010100
10.500000	0.025100	0.022100	0.020400	0.018600	0.017300	0.016400	0.015800	0.015000	0.014500	0.014000	0.013700	0.013400	0.013100	0.012900	0.012600	0.012400	0.012200	0.012100	0.012000	0.011900	0.011800	0.011700	0.011600	0.011500	0.011400	0.011300	0.011200	0.011100	0.011000	0.011000	0.010900	0.010900	0.010900	0.010800	0.010800	0.010800	0.010700	0.010700	0.010600
11.000000	0.025900	0.022800	0.021100	0.019800	0.018600	0.017500	0.016700	0.016100	0.015600	0.015100	0.014600	0.014200	0.013900	0.013600	0.013400	0.013200	0.013000	0.012900	0.012700	0.012500	0.012400	0.012200	0.012100	0.012000	0.012000	0.011900	0.011900	0.011800	0.011700	0.011700	0.011600	0.011500	0.011400	0.011300	0.011300	0.011200	0.011200	0.011100	0.011000
11.500000	0.027200	0.024200	0.022000	0.020700	0.019500	0.018900	0.017900	0.017100	0.016500	0.016000	0.015600	0.015300	0.015000	0.014600	0.014300	0.014000	0.013800	0.013600	0.013400	0.013300	0.013200	0.013100	0.013000	0.012900	0.012700	0.012600	0.012500	0.012400	0.012300	0.012200	0.012100	0.012000	0.012000	0.011900	0.011800	0.011800	0.011800	0.011700	0.011700
12.000000	0.028600	0.025500	0.023700	0.021800	0.020800	0.019600	0.018800	0.018300	0.017900	0.017300	0.016700	0.016300	0.015900	0.015600	0.015300	0.015100	0.014900	0.014700	0.014500	0.014200	0.014000	0.013800	0.013700	0.013500	0.013400	0.013300	0.013200	0.013100	0.013000	0.012900	0.012900	0.012800	0.012700	0.012700	0.012600	0.012500	0.012500	0.012400	0.012300
12.500000	0.030300	0.027400	0.025100	0.023600	0.022000	0.020800	0.020100	0.019400	0.018700	0.018200	0.017800	0.017600	0.017300	0.016900	0.016500	0.016100	0.015800	0.015600	0.015400	0.015100	0.015000	0.014800	0.014700	0.014500	0.014400	0.014300	0.014100	0.014000	0.013900	0.013800	0.013700	0.013600	0.013400	0.013300	0.013200	0.013200	0.013100	0.013000	0.012900
13.000000	0.032400	0.029600	0.027300	0.025300	0.023700	0.022800	0.021500	0.020600	0.019900	0.019500	0.019100	0.018500	0.018100	0.017700	0.017400	0.017200	0.017000	0.016800	0.016600	0.016400	0.016200	0.016000	0.015800	0.015600	0.015400	0.015200	0.015000	0.014900	0.014800	0.014600	0.014500	0.014600	0.014300	0.014200	0.014100	0.014000	0.014000	0.014000	0.013800
13.500000	0.034700	0.031900	0.029700	0.027400	0.026100	0.024300	0.023200	0.022400	0.021800	0.020900	0.020300	0.019700	0.019300	0.019000	0.018700	0.018500	0.018200	0.017900	0.017600	0.017300	0.017100	0.016900	0.016700	0.016500	0.016400	0.016300	0.016200	0.016000	0.015900	0.015800	0.015700	0.015600	0.015500	0.015400	0.015300	0.015200	0.015100	0.015000	0.014900
14.000000	0.037400	0.035000	0.032200	0.030600	0.028100	0.026500	0.025600	0.024400	0.023300	0.022500	0.021900	0.021400	0.021100	0.020700	0.020200	0.019800	0.019400	0.019000	0.018700	0.018500	0.018300	0.018100	0.017900	0.017800	0.017700	0.017500	0.017400	0.017300	0.017100	0.016900	0.016800	0.016600	0.016500	0.016400	0.016200	0.016100	0.016000	0.015900	0.015800
14.500000	0.040400	0.037900	0.035900	0.033000	0.030900	0.029700	0.027700	0.026400	0.025400	0.024700	0.024200	0.023500	0.022800	0.022200	0.021700	0.021300	0.020900	0.020600	0.020400	0.020200	0.020000	0.019800	0.019600	0.019300	0.019100	0.018800	0.018600	0.018400	0.018200	0.018000	0.017900	0.017700	0.017600	0.017500	0.017400	0.017200	0.017200	0.017100	0.017000
15.000000	0.043500	0.041300	0.039100	0.036400	0.034700	0.032100	0.030300	0.029200	0.028300	0.027300	0.026300	0.025300	0.024700	0.024100	0.023700	0.023300	0.023000	0.022700	0.022400	0.022000	0.021700	0.021300	0.021000	0.020700	0.020400	0.020200	0.020000	0.019800	0.019600	0.019500	0.019400	0.019200	0.019100	0.019000	0.018900	0.018800	0.018700	0.018600	0.018500
15.500000	0.047100	0.045200	0.042700	0.041200	0.037700	0.035400	0.033800	0.032800	0.031000	0.029700	0.028600	0.027800	0.027200	0.026800	0.026400	0.025900	0.025200	0.024600	0.024200	0.023800	0.023400	0.023000	0.022700	0.022400	0.022200	0.022000	0.021800	0.021700	0.021500	0.021400	0.021200	0.021100	0.020900	0.020800	0.020600	0.020400	0.020200	0.020100	0.019900
16.000000	0.051700	0.049400	0.047500	0.044600	0.041600	0.039800	0.038000	0.035600	0.033900	0.032700	0.031800	0.031200	0.030500	0.029600	0.028800	0.028000	0.027300	0.026800	0.026400	0.026000	0.025600	0.025300	0.025000	0.024800	0.024500	0.024300	0.024100	0.023900	0.023700	0.023500	0.023200	0.022900	0.022700	0.022400	0.022200	0.022000	0.021800	0.021600	0.021400
16.500000	0.056000	0.054000	0.052200	0.048900	0.046700	0.044500	0.041500	0.039300	0.037800	0.036700	0.036000	0.034600	0.033200	0.032200	0.031400	0.030700	0.030000	0.029600	0.029200	0.028800	0.028500	0.028200	0.027800	0.027500	0.027100	0.026700	0.026400	0.026000	0.025700	0.025400	0.025100	0.024800	0.024500	0.024200	0.024000	0.023800	0.023700	0.023500	0.023300
17.000000	0.060000	0.059000	0.056900	0.054300	0.052400	0.048500	0.045900	0.043900	0.042900	0.041300	0.039300	0.037800	0.036500	0.035500	0.034800	0.034100	0.033600	0.033000	0.032600	0.032200	0.031800	0.031200	0.030600	0.030000	0.029500	0.029100	0.028700	0.028400	0.028000	0.027700	0.027300	0.027000	0.026800	0.026600	0.026400	0.026200	0.026100	0.026000	0.025800
17.500000	0.067200	0.063700	0.062200	0.060800	0.057100	0.053600	0.051400	0.050300	0.047500	0.045100	0.043200	0.041800	0.040600	0.039700	0.039000	0.038400	0.037800	0.037200	0.036200	0.035400	0.034700	0.034000	0.033300	0.032800	0.032300	0.031900	0.031500	0.031200	0.030900	0.030500	0.030200	0.030000	0.029700	0.029600	0.029400	0.029200	0.029100	0.028900	0.028700
18.000000	0.074200	0.069700	0.068300	0.066000	0.062600	0.060000	0.058700	0.055200	0.052100	0.049900	0.048000	0.046800	0.045800	0.044900	0.044100	0.043000	0.041900	0.040600	0.039600	0.038800	0.038100	0.037500	0.036800	0.036200	0.035800	0.035400	0.035100	0.034800	0.034500	0.034200	0.034000	0.033700	0.033400	0.033000	0.032800	0.032500	0.032300	0.032100	0.031900
18.500000	0.080300	0.075900	0.074100	0.071800	0.069200	0.068000	0.064000	0.060600	0.057600	0.055600	0.054000	0.052700	0.051900	0.050600	0.048600	0.047200	0.046000	0.044700	0.043700	0.042900	0.042300	0.041700	0.041100	0.040500	0.040000	0.039700	0.039300	0.039000	0.038700	0.038400	0.038100	0.037700	0.037400	0.036800	0.036300	0.035900	0.035500	0.035200	0.034900
19.000000	0.086000	0.082200	0.080500	0.078400	0.077000	0.074100	0.069900	0.066800	0.064100	0.062500	0.061400	0.060100	0.057400	0.055500	0.053400	0.052000	0.050800	0.049600	0.048500	0.047800	0.047200	0.046700	0.046200	0.045700	0.045200	0.044600	0.044100	0.043700	0.043300	0.042700	0.042100	0.041600	0.040900	0.040300	0.039800	0.039400	0.039100	0.038700	0.038400
19.500000	0.102500	0.087000	0.087400	0.085900	0.083900	0.080300	0.076600	0.074000	0.072100	0.070700	0.068700	0.065700	0.063100	0.061100	0.059000	0.057600	0.056500	0.055600	0.054600	0.053700	0.053100	0.052500	0.052000	0.051500	0.051000	0.050100	0.048900	0.048200	0.047500	0.046900	0.046300	0.045700	0.045000	0.044300	0.043900	0.043500	0.043100	0.042800	0.042500
20.000000	0.144367	0.095800	0.094500	0.092800	0.090500	0.087100	0.084200	0.082400	0.081400	0.078300	0.074900	0.072000	0.069400	0.067600	0.065800	0.064200	0.063200	0.062400	0.061700	0.060900	0.060100	0.059200	0.058100	0.057100	0.056100	0.055000	0.053700	0.053000	0.052400	0.051700	0.051100	0.050500	0.049800	0.049100	0.048600	0.048300	0.047900	0.047600	0.047300
20.500000	0.186233	0.105100	0.101400	0.099500	0.097400	0.094600	0.092900	0.092000	0.089000	0.084800	0.081900	0.079100	0.076600	0.074900	0.073600	0.072200	0.070900	0.070200	0.069500	0.068500	0.067000	0.064900	0.063800	0.062700	0.061700	0.060600	0.059300	0.058600	0.057900	0.057300	0.056700	0.056200	0.055600	0.055000	0.054300	0.054000	0.053700	0.053400	0.053100
21.000000	0.228100	0.114300	0.107800	0.106900	0.104700	0.103200	0.102200	0.099400	0.096100	0.092200	0.089600	0.087100	0.084700	0.083300	0.082300	0.081400	0.080600	0.078600	0.076600	0.075000	0.073300	0.071300	0.070100	0.069100	0.068100	0.067100	0.065600	0.064900	0.064300	0.063700	0.063300	0.062800	0.062400	0.062000	0.061600	0.061200	0.060600	0.060000	0.059600
21.500000	0.231900	0.123100	0.116400	0.114600	0.112900	0.111900	0.109600	0.106700	0.103100	0.100200	0.098000	0.096200	0.094200	0.093000	0.092200	0.091000	0.088700	0.085500	0.083700	0.082100	0.080400	0.078300	0.077200	0.076200	0.075300	0.074400	0.073400	0.072100	0.071600	0.071100	0.070700	0.070300	0.069900	0.069500	0.069100	0.068700	0.068200	0.067700	0.067000
22.000000	0.236300	0.129600	0.125400	0.122600	0.121200	0.119300	0.117000	0.114000	0.111100	0.108900	0.107300	0.106100	0.105300	0.104500	0.101000	0.098600	0.096200	0.093200	0.091500	0.090000	0.088400	0.086200	0.085100	0.084200	0.083400	0.082700	0.082000	0.081300	0.080400	0.079400	0.078800	0.078300	0.077900	0.077400	0.076900	0.076500	0.076000	0.075500	0.075000
22.500000	0.247400	0.155650	0.134500	0.130100	0.127800	0.126200	0.124000	0.121800	0.119800	0.118500	0.117700	0.117000	0.115200	0.111300	0.108900	0.106600	0.103500	0.101400	0.099900	0.098500	0.097000	0.094900	0.093900	0.093100	0.092400	0.091800	0.091200	0.090600	0.089900	0.089200	0.087700	0.087000	0.086400	0.085900	0.085400	0.084600	0.083900	0.083100	0.082200
23.000000	0.252100	0.181700	0.143600	0.136900	0.135800	0.134100	0.132100	0.130400	0.129500	0.128900	0.128000	0.125600	0.121800	0.119400	0.117200	0.115000	0.111900	0.110200	0.108900	0.107600	0.106400	0.104900	0.103400	0.102700	0.102000	0.101400	0.100700	0.100200	0.099600	0.098900	0.098200	0.097200	0.095200	0.094200	0.093300	0.092500	0.091700	0.090900	0.089800
23.500000	0.256600	0.193200	0.152200	0.145800	0.144100	0.142100	0.140600	0.139900	0.139300	0.137700	0.135200	0.132200	0.129900	0.127800	0.125800	0.122600	0.121000	0.119600	0.118500	0.117500	0.116700	0.115700	0.113800	0.112800	0.112100	0.111500	0.110900	0.110300	0.109600	0.108400	0.107100	0.104400	0.103400	0.102500	0.101600	0.100800	0.100000	0.099000	0.096700
24.000000	0.260900	0.204700	0.202200	0.156200	0.151900	0.149700	0.149000	0.147700	0.146000	0.144200	0.142200	0.140300	0.138300	0.136400	0.133400	0.131900	0.130600	0.129600	0.128800	0.128000	0.127300	0.126600	0.125800	0.123800	0.123000	0.122100	0.120700	0.119500	0.118300	0.117100	0.114100	0.113000	0.112000	0.111100	0.110300	0.109400	0.108600	0.106100	0.105100
24.500000	0.268900	0.216750	0.214300	0.168700	0.160700	0.158500	0.156800	0.155300	0.153700	0.152100	0.150300	0.148400	0.145600	0.144000	0.142700	0.141700	0.140900	0.140200	0.139600	0.139000	0.138500	0.137900	0.137100	0.133800	0.132200	0.130900	0.129600	0.128400	0.127100	0.124100	0.122900	0.121900	0.121000	0.120100	0.119300	0.118500	0.117400	0.114900	0.114100
25.000000	0.276000	0.228800	0.226400	0.181200	0.169500	0.165400	0.163900	0.162600	0.160800	0.158900	0.157200	0.155700	0.154500	0.153600	0.152900	0.152300	0.151800	0.151300	0.150800	0.150100	0.148600	0.145300	0.143700	0.142300	0.141000	0.139800	0.138600	0.135400	0.134100	0.133000	0.132000	0.131100	0.130300	0.129500	0.128600	0.125900	0.125000	0.124300	0.123700
25.500000	0.288650	0.241200	0.238900	0.217450	0.207150	0.202900	0.204150	0.201900	0.200750	0.200300	0.198950	0.197500	0.195850	0.195200	0.194800	0.194450	0.194150	0.193850	0.193500	0.192950	0.191600	0.188500	0.187050	0.185800	0.184650	0.183500	0.182350	0.179200	0.177950	0.176950	0.176100	0.175100	0.174600	0.173900	0.173150	0.170500	0.169700	0.169000	0.168350
26.000000	0.301300	0.253600	0.251400	0.253700	0.244800	0.240400	0.244400	0.241200	0.240700	0.241700	0.240700	0.239300	0.237200	0.236800	0.236700	0.236600	0.236500	0.236400	0.236200	0.235800	0.234600	0.231700	0.230400	0.229300	0.228300	0.227200	0.226100	0.223000	0.221800	0.220900	0.220200	0.219100	0.218900	0.218300	0.217700	0.215100	0.214400	0.213700	0.213000
26.500000	0.314000	0.266350	0.264250	0.266700	0.257650	0.253200	0.257500	0.254300	0.253900	0.255050	0.254050	0.252650	0.250500	0.250150	0.250150	0.250150	0.250100	0.250050	0.249900	0.249550	0.248350	0.245400	0.244050	0.242950	0.241900	0.240800	0.239650	0.236450	0.235200	0.234300	0.233500	0.232450	0.232200	0.231650	0.231050	0.228300	0.227600	0.226900	0.226200
27.000000	0.326700	0.279100	0.277100	0.279700	0.270500	0.266000	0.270600	0.267400	0.267100	0.268400	0.267400	0.266000	0.263800	0.263500	0.263600	0.263700	0.263700	0.263700	0.263600	0.263300	0.262100	0.259100	0.257700	0.256600	0.255500	0.254400	0.253200	0.249900	0.248600	0.247700	0.246800	0.245800	0.245500	0.245000	0.244400	0.241500	0.240800	0.240100	0.239400
27.500000	0.339500	0.292200	0.290300	0.293050	0.283750	0.279150	0.284000	0.280850	0.280650	0.282000	0.281100	0.279700	0.277450	0.277150	0.277350	0.277500	0.277600	0.277700	0.277650	0.277350	0.276150	0.273050	0.271700	0.270550	0.269450	0.268300	0.267100	0.263700	0.262400	0.261450	0.260550	0.259550	0.259200	0.258700	0.258100	0.255150	0.254400	0.253700	0.253050
28.000000	0.352300	0.305300	0.303500	0.306400	0.297000	0.292300	0.297400	0.294300	0.294200	0.295600	0.294800	0.293400	0.291100	0.290800	0.291100	0.291300	0.291500	0.291700	0.291700	0.291400	0.290200	0.287000	0.285700	0.284500	0.283400	0.282200	0.281000	0.277500	0.276200	0.275200	0.274300	0.273300	0.272900	0.272400	0.271800	0.268800	0.268000	0.267300	0.266700
28.500000	0.365200	0.318650	0.316900	0.319950	0.310500	0.305750	0.311050	0.308050	0.308000	0.309500	0.308700	0.307350	0.305050	0.304750	0.305150	0.305400	0.305650	0.305900	0.305950	0.305650	0.304500	0.301250	0.299900	0.298750	0.297600	0.296450	0.295200	0.291650	0.290300	0.289300	0.288400	0.287400	0.287000	0.286500	0.285900	0.282800	0.282000	0.281350	0.280700
29.000000	0.378100	0.332000	0.330300	0.333500	0.324000	0.319200	0.324700	0.321800	0.321800	0.323400	0.322600	0.321300	0.319000	0.318700	0.319200	0.319500	0.319800	0.320100	0.320200	0.319900	0.318800	0.315500	0.314100	0.313000	0.311800	0.310700	0.309400	0.305800	0.304400	0.303400	0.302500	0.301500	0.301100	0.300600	0.300000	0.296800	0.296000	0.295400	0.294700
29.500000	0.391100	0.345600	0.344000	0.347300	0.337800	0.332850	0.338650	0.335750	0.335850	0.337450	0.336750	0.335500	0.333150	0.332850	0.333450	0.333800	0.334150	0.334500	0.334600	0.334400	0.333250	0.329950	0.328600	0.327450	0.326250	0.325150	0.323850	0.320200	0.318800	0.317800	0.316900	0.315900	0.315450	0.314950	0.314350	0.311150	0.310350	0.309700	0.309050
30.000000	0.404100	0.359200	0.357700	0.361100	0.351600	0.346500	0.352600	0.349700	0.349900	0.351500	0.350900	0.349700	0.347300	0.347000	0.347700	0.348100	0.348500	0.348900	0.349000	0.348900	0.347700	0.344400	0.343100	0.341900	0.340700	0.339600	0.338300	0.334600	0.333200	0.332200	0.331300	0.330300	0.329800	0.329300	0.328700	0.325500	0.324700	0.324000	0.323400
31.000000	0.430500	0.386900	0.385500	0.389000	0.379600	0.374300	0.380800	0.378000	0.378400	0.380100	0.379600	0.378400	0.376000	0.375800	0.376600	0.377100	0.377500	0.378000	0.378200	0.378100	0.376900	0.373600	0.372300	0.371100	0.370000	0.368800	0.367600	0.363800	0.362400	0.361400	0.360500	0.359500	0.359000	0.358500	0.358000	0.354600	0.353900	0.353200	0.352700
32.000000	0.457100	0.414900	0.413700	0.417300	0.408000	0.402500	0.409400	0.406800	0.407200	0.409000	0.408500	0.407400	0.405100	0.404800	0.405700	0.406300	0.406800	0.407300	0.407600	0.407500	0.406400	0.403200	0.401800	0.400700	0.399600	0.398400	0.397200	0.393400	0.392000	0.391000	0.390000	0.389100	0.388600	0.388100	0.387600	0.384200	0.383500	0.382900	0.382300
33.000000	0.484000	0.443300	0.442200	0.445900	0.436700	0.430900	0.438300	0.435800	0.436300	0.438100	0.437800	0.436700	0.434400	0.434200	0.435100	0.435800	0.436400	0.436900	0.437200	0.437200	0.436100	0.432900	0.431600	0.430500	0.429400	0.428200	0.427000	0.423300	0.421900	0.420800	0.419900	0.419000	0.418500	0.418000	0.417600	0.414200	0.413400	0.412800	0.412300
34.000000	0.511100	0.472000	0.471000	0.474700	0.465700	0.459700	0.467500	0.465100	0.465600	0.467500	0.467200	0.466200	0.463900	0.463800	0.464800	0.465500	0.466100	0.466700	0.467000	0.467000	0.466000	0.462800	0.461600	0.460500	0.459400	0.458300	0.457100	0.453400	0.452100	0.451000	0.450100	0.449200	0.448600	0.448200	0.447800	0.444400	0.443700	0.443100	0.442600
35.000000	0.538600	0.501000	0.500100	0.503800	0.495000	0.488700	0.496900	0.494600	0.495200	0.497100	0.496900	0.495900	0.493700	0.493500	0.494600	0.495300	0.496000	0.496600	0.497000	0.497000	0.496000	0.492900	0.491700	0.490600	0.489600	0.488500	0.487300	0.483700	0.482400	0.481300	0.480500	0.479600	0.479000	0.478600	0.478200	0.474900	0.474200	0.473600	0.473200
36.000000	0.566200	0.530200	0.529400	0.533100	0.524600	0.518000	0.526500	0.524300	0.525000	0.526900	0.526700	0.525700	0.523600	0.523500	0.524600	0.525300	0.526000	0.526600	0.527100	0.527100	0.526100	0.523100	0.522000	0.520900	0.519900	0.518900	0.517700	0.514100	0.512900	0.511800	0.511000	0.510200	0.509600	0.509200	0.508800	0.505500	0.504900	0.504300	0.503900
37.000000	0.594200	0.559600	0.558900	0.562600	0.554300	0.547400	0.556200	0.554200	0.554900	0.556800	0.556700	0.555700	0.553700	0.553600	0.554700	0.555500	0.556100	0.556800	0.557200	0.557200	0.556300	0.553400	0.552300	0.551300	0.550400	0.549300	0.548200	0.544700	0.543500	0.542500	0.541600	0.540900	0.540300	0.539900	0.539600	0.536300	0.535700	0.535200	0.534800
38.000000	0.622300	0.589200	0.588600	0.592200	0.584100	0.577000	0.586200	0.584200	0.585000	0.586800	0.586700	0.585900	0.583900	0.583800	0.584900	0.585700	0.586400	0.587000	0.587500	0.587500	0.586600	0.583800	0.582800	0.581800	0.580900	0.579900	0.578800	0.575400	0.574200	0.573200	0.572400	0.571700	0.571100	0.570800	0.570400	0.567200	0.566600	0.566100	0.565800
39.000000	0.650600	0.618900	0.618400	0.622000	0.614100	0.606700	0.616200	0.614300	0.615100	0.616900	0.616900	0.616100	0.614100	0.614000	0.615200	0.616000	0.616700	0.617300	0.617800	0.617800	0.617000	0.614300	0.613200	0.612300	0.611400	0.610500	0.609400	0.606100	0.605000	0.604000	0.603200	0.602600	0.602000	0.601600	0.601300	0.598200	0.597600	0.597200	0.596800
40.000000	0.679100	0.648700	0.648300	0.651800	0.644200	0.636400	0.646300	0.644600	0.645400	0.647100	0.647100	0.646300	0.644500	0.644400	0.645600	0.646300	0.647000	0.647700	0.648100	0.648200	0.647400	0.644800	0.643800	0.642900	0.642000	0.641100	0.640100	0.636900	0.635800	0.634900	0.634100	0.633500	0.632900	0.632600	0.632300	0.629200	0.628700	0.628200	0.627900
41.000000	0.707700	0.678600	0.678300	0.681700	0.674400	0.666300	0.676500	0.674800	0.675600	0.677400	0.677400	0.676600	0.674800	0.674800	0.675900	0.676700	0.677400	0.678000	0.678500	0.678500	0.677800	0.675300	0.674300	0.673500	0.672600	0.671700	0.670800	0.667700	0.666600	0.665700	0.665000	0.664400	0.663800	0.663500	0.663200	0.660300	0.659700	0.659300	0.659000
42.000000	0.736400	0.708600	0.708300	0.711700	0.704600	0.696100	0.706700	0.705100	0.705900	0.707600	0.707600	0.706900	0.705200	0.705200	0.706300	0.707100	0.707700	0.708400	0.708800	0.708900	0.708200	0.705800	0.704800	0.704000	0.703200	0.702400	0.701500	0.698500	0.697400	0.696600	0.695900	0.695300	0.694700	0.694400	0.694200	0.691300	0.690800	0.690400	0.690100
43.000000	0.765200	0.738600	0.738300	0.741600	0.734800	0.726000	0.736900	0.735400	0.736200	0.737900	0.737900	0.737200	0.735600	0.735500	0.736600	0.737400	0.738000	0.738700	0.739100	0.739200	0.738500	0.736200	0.735300	0.734600	0.733800	0.733000	0.732100	0.729200	0.728200	0.727400	0.726700	0.726100	0.725600	0.725300	0.725100	0.722300	0.721800	0.721400	0.721200
44.000000	0.794000	0.768600	0.768400	0.771600	0.765000	0.755900	0.767000	0.765600	0.766400	0.768100	0.768100	0.767500	0.765900	0.765800	0.767000	0.767700	0.768300	0.769000	0.769400	0.769500	0.768800	0.766600	0.765800	0.765000	0.764300	0.763500	0.762600	0.759900	0.758900	0.758100	0.757400	0.756900	0.756400	0.756100	0.755900	0.753200	0.752700	0.752400	0.752200
45.000000	0.822800	0.798500	0.798400	0.801500	0.795100	0.785700	0.797200	0.795800	0.796600	0.798200	0.798300	0.797700	0.796100	0.796100	0.797200	0.797900	0.798500	0.799100	0.799600	0.799600	0.799000	0.796900	0.796100	0.795400	0.794700	0.793900	0.793100	0.790400	0.789500	0.788700	0.788100	0.787600	0.787100	0.786800	0.786600	0.784000	0.783600	0.783300	0.783000
46.000000	0.851600	0.828400	0.828300	0.831300	0.825200	0.815400	0.827200	0.825900	0.826700	0.828200	0.828300	0.827800	0.826300	0.826200	0.827300	0.828000	0.828600	0.829200	0.829600	0.829700	0.829100	0.827100	0.826300	0.825700	0.825000	0.824200	0.823500	0.820900	0.820000	0.819300	0.818600	0.818200	0.817600	0.817400	0.817200	0.814700	0.814300	0.814000	0.813800
47.000000	0.880400	0.858200	0.858100	0.861000	0.855100	0.845000	0.857100	0.855900	0.856700	0.858100	0.858200	0.857700	0.856300	0.856300	0.857300	0.858000	0.858600	0.859200	0.859600	0.859600	0.859100	0.857100	0.856400	0.855800	0.855100	0.854400	0.853700	0.851200	0.850400	0.849600	0.849000	0.848600	0.848100	0.847900	0.847700	0.845300	0.844900	0.844600	0.844400
48.000000	0.909100	0.887800	0.887700	0.890600	0.884900	0.874400	0.886900	0.885700	0.886500	0.887900	0.888000	0.887500	0.886200	0.886100	0.887100	0.887800	0.888400	0.889000	0.889300	0.889400	0.888900	0.887000	0.886300	0.885700	0.885100	0.884400	0.883700	0.881300	0.880500	0.879800	0.879300	0.878800	0.878300	0.878200	0.878000	0.875700	0.875300	0.875000	0.874800
49.000000	0.937600	0.917300	0.917200	0.920000	0.914600	0.903700	0.916400	0.915400	0.916100	0.917500	0.917600	0.917100	0.915800	0.915800	0.916800	0.917400	0.918000	0.918600	0.918900	0.919000	0.918500	0.916700	0.916100	0.915500	0.914900	0.914200	0.913500	0.911300	0.910500	0.909800	0.909300	0.908900	0.908400	0.908200	0.908000	0.905800	0.905400	0.905200	0.905000
50.000000	0.966000	0.946600	0.946500	0.949200	0.944000	0.932800	0.945800	0.944800	0.945500	0.946900	0.947000	0.946500	0.945300	0.945300	0.946200	0.946900	0.947400	0.947900	0.948300	0.948400	0.947900	0.946200	0.945600	0.945000	0.944400	0.943800	0.943200	0.941000	0.940200	0.939600	0.939000	0.938700	0.938200	0.938000	0.937900	0.935700	0.935400	0.935100	0.934900
51.000000	0.994200	0.975600	0.975600	0.978200	0.973200	0.961600	0.975000	0.974000	0.974700	0.976000	0.976100	0.975700	0.974500	0.974500	0.975400	0.976000	0.976600	0.977100	0.977400	0.977500	0.977100	0.975400	0.974800	0.974300	0.973700	0.973100	0.972500	0.970400	0.969700	0.969100	0.968600	0.968200	0.967800	0.967600	0.967400	0.965400	0.965000	0.964800	0.964600
52.000000	1.022200	1.004400	1.004400	1.007000	1.002100	0.990200	1.003900	1.002900	1.003600	1.004900	1.005000	1.004600	1.003400	1.003400	1.004300	1.004900	1.005400	1.006000	1.006300	1.006400	1.005900	1.004400	1.003800	1.003300	1.002800	1.002200	1.001600	0.999600	0.998900	0.998300	0.997800	0.997500	0.997000	0.996900	0.996700	0.994700	0.994400	0.994200	0.994000
53.000000	1.050000	1.032900	1.033000	1.035400	1.030700	1.018500	1.032400	1.031600	1.032200	1.033500	1.033600	1.033200	1.032100	1.032100	1.033000	1.033500	1.034000	1.034500	1.034900	1.034900	1.034500	1.033000	1.032500	1.032000	1.031500	1.030900	1.030300	1.028400	1.027800	1.027200	1.026700	1.026400	1.026000	1.025800	1.025700	1.023800	1.023500	1.023200	1.023100
54.000000	1.077400	1.061100	1.061200	1.063500	1.059000	1.046400	1.060700	1.059900	1.060500	1.061700	1.061800	1.061500	1.060400	1.060400	1.061200	1.061800	1.062300	1.062800	1.063100	1.063200	1.062800	1.061300	1.060800	1.060300	1.059800	1.059300	1.058800	1.056900	1.056300	1.055700	1.055300	1.055000	1.054600	1.054400	1.054300	1.052500	1.052200	1.052000	1.051800
55.000000	1.104600	1.089000	1.089000	1.091300	1.087000	1.074000	1.088600	1.087800	1.088500	1.089600	1.089700	1.089400	1.088300	1.088300	1.089200	1.089700	1.090200	1.090600	1.090900	1.091000	1.090600	1.089300	1.088800	1.088300	1.087900	1.087400	1.086800	1.085000	1.084400	1.083900	1.083500	1.083200	1.082800	1.082700	1.082500	1.080800	1.080500	1.080300	1.080200
56.000000	1.131400	1.116400	1.116500	1.118700	1.114500	1.101300	1.116100	1.115400	1.116000	1.117100	1.117200	1.116900	1.115900	1.115900	1.116700	1.117200	1.117700	1.118100	1.118400	1.118500	1.118100	1.116800	1.116300	1.115900	1.115500	1.115000	1.114500	1.112800	1.112200	1.111700	1.111300	1.111000	1.110600	1.110500	1.110400	1.108700	1.108400	1.108200	1.108100
57.000000	1.157800	1.143500	1.143600	1.145700	1.141700	1.128100	1.143200	1.142500	1.143100	1.144200	1.144300	1.144000	1.143000	1.143000	1.143800	1.144300	1.144700	1.145200	1.145500	1.145500	1.145200	1.143900	1.143500	1.143100	1.142600	1.142200	1.141700	1.140100	1.139500	1.139000	1.138600	1.138400	1.138000	1.137900	1.137800	1.136100	1.135900	1.135700	1.135600
58.000000	1.183800	1.170100	1.170200	1.172200	1.168400	1.154500	1.169900	1.169200	1.169800	1.170800	1.170900	1.170600	1.169700	1.169700	1.170500	1.171000	1.171400	1.171800	1.172100	1.172200	1.171800	1.170600	1.170200	1.169800	1.169400	1.168900	1.168500	1.166900	1.166400	1.165900	1.165500	1.165300	1.164900	1.164800	1.164700	1.163100	1.162900	1.162700	1.162600
59.000000	1.209400	1.196200	1.196300	1.198300	1.194600	1.180400	1.196100	1.195400	1.196000	1.197000	1.197100	1.196800	1.195900	1.195900	1.196700	1.197100	1.197500	1.197900	1.198200	1.198300	1.198000	1.196800	1.196400	1.196000	1.195600	1.195200	1.194800	1.193200	1.192700	1.192300	1.191900	1.191700	1.191300	1.191200	1.191100	1.189600	1.189400	1.189200	1.189100
60.000000	1.234500	1.221900	1.222000	1.223900	1.220300	1.205800	1.221700	1.221100	1.221700	1.222600	1.222700	1.222500	1.221600	1.221600	1.222300	1.222800	1.223200	1.223600	1.223800	1.223900	1.223600	1.222500	1.222100	1.221700	1.221400	1.221000	1.220500	1.219100	1.218600	1.218200	1.217800	1.217600	1.217300	1.217200	1.217100	1.215600	1.215400	1.215200	1.215200
61.000000	1.259000	1.247000	1.247100	1.248900	1.245500	1.230600	1.246900	1.246300	1.246800	1.247700	1.247900	1.247600	1.246800	1.246800	1.247500	1.247900	1.248300	1.248700	1.248900	1.249000	1.248700	1.247700	1.247300	1.246900	1.246600	1.246200	1.245800	1.244400	1.243900	1.243500	1.243200	1.242900	1.242600	1.242500	1.242400	1.241100	1.240800	1.240700	1.240600
62.000000	1.283100	1.271600	1.271600	1.273400	1.270200	1.255000	1.271500	1.270900	1.271400	1.272300	1.272400	1.272200	1.271400	1.271400	1.272100	1.272500	1.272900	1.273200	1.273500	1.273500	1.273300	1.272200	1.271900	1.271500	1.271200	1.270800	1.270400	1.269100	1.268700	1.268300	1.267900	1.267700	1.267400	1.267300	1.267300	1.265900	1.265700	1.265600	1.265500
63.000000	1.306600	1.295500	1.295600	1.297300	1.294200	1.278700	1.295500	1.294900	1.295400	1.296300	1.296400	1.296200	1.295400	1.295400	1.296100	1.296500	1.296800	1.297200	1.297400	1.297500	1.297200	1.296200	1.295900	1.295600	1.295200	1.294900	1.294500	1.293200	1.292800	1.292400	1.292100	1.291900	1.291600	1.291500	1.291500	1.290200	1.290000	1.289800	1.289800
64.000000	1.329500	1.318900	1.319000	1.320600	1.317600	1.301800	1.318900	1.318300	1.318800	1.319600	1.319800	1.319500	1.318800	1.318800	1.319400	1.319800	1.320200	1.320500	1.320700	1.320800	1.320600	1.319600	1.319300	1.319000	1.318700	1.318300	1.318000	1.316700	1.316300	1.316000	1.315700	1.315500	1.315200	1.315100	1.315000	1.313800	1.313600	1.313500	1.313400
65.000000	1.351800	1.341600	1.341700	1.343300	1.340400	1.324300	1.341600	1.341100	1.341600	1.342400	1.342500	1.342300	1.341600	1.341600	1.342200	1.342600	1.342900	1.343200	1.343400	1.343500	1.343300	1.342400	1.342000	1.341700	1.341500	1.341100	1.340800	1.339600	1.339200	1.338900	1.338600	1.338400	1.338100	1.338000	1.338000	1.336800	1.336600	1.336500	1.336400
66.000000	1.373400	1.363700	1.363800	1.365300	1.362500	1.346200	1.363700	1.363200	1.363700	1.364400	1.364500	1.364300	1.363700	1.363700	1.364300	1.364600	1.364900	1.365200	1.365500	1.365500	1.365300	1.364400	1.364100	1.363800	1.363600	1.363200	1.362900	1.361800	1.361400	1.361100	1.360800	1.360600	1.360400	1.360300	1.360200	1.359100	1.358900	1.358800	1.358700
67.000000	1.394400	1.385000	1.385100	1.386600	1.383900	1.367300	1.385100	1.384600	1.385100	1.385800	1.385900	1.385700	1.385100	1.385100	1.385600	1.386000	1.386300	1.386600	1.386800	1.386800	1.386600	1.385800	1.385500	1.385200	1.385000	1.384700	1.384400	1.383300	1.382900	1.382600	1.382300	1.382200	1.381900	1.381800	1.381800	1.380700	1.380500	1.380400	1.380400
68.000000	1.414600	1.405700	1.405800	1.407200	1.404700	1.387800	1.405700	1.405300	1.405700	1.406400	1.406500	1.406400	1.405800	1.405800	1.406300	1.406600	1.406900	1.407200	1.407400	1.407500	1.407300	1.406500	1.406200	1.405900	1.405700	1.405400	1.405100	1.404000	1.403700	1.403400	1.403100	1.403000	1.402700	1.402700	1.402600	1.401600	1.401400	1.401300	1.401200
69.000000	1.434200	1.425600	1.425700	1.427100	1.424600	1.407500	1.425700	1.425300	1.425700	1.426300	1.426500	1.426300	1.425700	1.425700	1.426200	1.426500	1.426800	1.427100	1.427300	1.427300	1.427100	1.426400	1.426100	1.425900	1.425600	1.425400	1.425100	1.424100	1.423700	1.423400	1.423200	1.423000	1.422800	1.422700	1.422700	1.421700	1.421500	1.421400	1.421400
70.000000	1.453000	1.444800	1.444900	1.446200	1.443800	1.426500	1.444800	1.444400	1.444900	1.445500	1.445600	1.445400	1.444900	1.444900	1.445400	1.445700	1.446000	1.446200	1.446400	1.446500	1.446300	1.445600	1.445300	1.445100	1.444800	1.444600	1.444300	1.443300	1.443000	1.442700	1.442500	1.442300	1.442100	1.442100	1.442000	1.441000	1.440900	1.440800	1.440700
71.000000	1.471000	1.463200	1.463300	1.464500	1.462300	1.444700	1.463200	1.462800	1.463200	1.463900	1.464000	1.463800	1.463300	1.463300	1.463800	1.464100	1.464300	1.464600	1.464700	1.464800	1.464600	1.463900	1.463700	1.463500	1.463200	1.463000	1.462700	1.461800	1.461500	1.461200	1.461000	1.460800	1.460600	1.460600	1.460500	1.459600	1.459500	1.459400	1.459300
72.000000	1.488300	1.480700	1.480800	1.482100	1.479900	1.462100	1.480800	1.480500	1.480800	1.481400	1.481500	1.481400	1.480900	1.480900	1.481300	1.481600	1.481900	1.482100	1.482300	1.482300	1.482200	1.481500	1.481300	1.481000	1.480800	1.480600	1.480300	1.479400	1.479200	1.478900	1.478700	1.478500	1.478300	1.478300	1.478200	1.477300	1.477200	1.477100	1.477100
73.000000	1.504700	1.497500	1.497600	1.498800	1.496700	1.478700	1.497600	1.497200	1.497600	1.498200	1.498300	1.498100	1.497600	1.497600	1.498100	1.498400	1.498600	1.498800	1.499000	1.499000	1.498900	1.498200	1.498000	1.497800	1.497600	1.497400	1.497100	1.496300	1.496000	1.495700	1.495500	1.495400	1.495200	1.495200	1.495100	1.494300	1.494100	1.494000	1.494000
74.000000	1.520300	1.513400	1.513500	1.514600	1.512600	1.494400	1.513500	1.513200	1.513500	1.514100	1.514200	1.514000	1.513600	1.513600	1.514000	1.514200	1.514500	1.514700	1.514900	1.514900	1.514700	1.514100	1.513900	1.513700	1.513500	1.513300	1.513100	1.512300	1.512000	1.511800	1.511600	1.511400	1.511200	1.511200	1.511100	1.510300	1.510200	1.510100	1.510100
75.000000	1.535100	1.528400	1.528500	1.529600	1.527700	1.509300	1.528500	1.528200	1.528600	1.529100	1.529200	1.529100	1.528600	1.528600	1.529000	1.529300	1.529500	1.529700	1.529900	1.529900	1.529800	1.529200	1.529000	1.528800	1.528600	1.528400	1.528200	1.527400	1.527100	1.526900	1.526700	1.526600	1.526400	1.526400	1.526300	1.525500	1.525400	1.525300	1.525300
76.000000	1.549000	1.542600	1.542700	1.543800	1.541900	1.523300	1.542700	1.542400	1.542700	1.543300	1.543300	1.543200	1.542800	1.542800	1.543200	1.543400	1.543600	1.543900	1.544000	1.544000	1.543900	1.543300	1.543100	1.543000	1.542800	1.542600	1.542400	1.541600	1.541400	1.541100	1.541000	1.540900	1.540700	1.540600	1.540600	1.539800	1.539700	1.539600	1.539600
77.000000	1.562000	1.555900	1.556000	1.557000	1.555200	1.536500	1.556000	1.555700	1.556000	1.556500	1.556600	1.556500	1.556100	1.556100	1.556400	1.556700	1.556900	1.557100	1.557200	1.557300	1.557100	1.556600	1.556400	1.556200	1.556100	1.555900	1.555700	1.554900	1.554700	1.554500	1.554300	1.554200	1.554000	1.554000	1.554000	1.553200	1.553100	1.553100	1.553000
78.000000	1.574100	1.568300	1.568300	1.569300	1.567600	1.548700	1.568400	1.568100	1.568400	1.568900	1.569000	1.568800	1.568400	1.568400	1.568800	1.569000	1.569200	1.569400	1.569600	1.569600	1.569500	1.569000	1.568800	1.568600	1.568400	1.568300	1.568100	1.567400	1.567100	1.566900	1.566800	1.566700	1.566500	1.566500	1.566400	1.565700	1.565600	1.565600	1.565500
79.000000	1.585300	1.579700	1.579800	1.580700	1.579100	1.560000	1.579800	1.579500	1.579800	1.580300	1.580400	1.580300	1.579900	1.579900	1.580200	1.580500	1.580700	1.580800	1.581000	1.581000	1.580900	1.580400	1.580200	1.580100	1.579900	1.579700	1.579500	1.578900	1.578600	1.578500	1.578300	1.578200	1.578000	1.578000	1.578000	1.577300	1.577200	1.577100	1.577100
80.000000	1.595600	1.590200	1.590300	1.591200	1.589600	1.570400	1.590300	1.590100	1.590400	1.590800	1.590900	1.590800	1.590400	1.590400	1.590700	1.591000	1.591100	1.591300	1.591400	1.591500	1.591400	1.590900	1.590700	1.590600	1.590400	1.590200	1.590100	1.589400	1.589200	1.589000	1.588900	1.588800	1.588600	1.588600	1.588600	1.587900	1.587800	1.587800	1.587700
81.000000	1.604900	1.599800	1.599800	1.600700	1.599200	1.579900	1.599900	1.599600	1.599900	1.600300	1.600400	1.600300	1.600000	1.600000	1.600300	1.600500	1.600700	1.600800	1.601000	1.601000	1.600900	1.600400	1.600300	1.600100	1.600000	1.599800	1.599600	1.599000	1.598800	1.598600	1.598500	1.598400	1.598300	1.598200	1.598200	1.597600	1.597500	1.597400	1.597400
82.000000	1.613300	1.608400	1.608400	1.609300	1.607800	1.588400	1.608500	1.608200	1.608500	1.608900	1.609000	1.608900	1.608600	1.608600	1.608900	1.609100	1.609200	1.609400	1.609500	1.609600	1.609400	1.609000	1.608900	1.608700	1.608600	1.608400	1.608300	1.607700	1.607500	1.607300	1.607200	1.607100	1.606900	1.606900	1.606900	1.606300	1.606200	1.606100	1.606100
83.000000	1.620700	1.616000	1.616100	1.616900	1.615500	1.596000	1.616100	1.615900	1.616100	1.616500	1.616600	1.616500	1.616200	1.616200	1.616500	1.616700	1.616800	1.617000	1.617100	1.617100	1.617000	1.616600	1.616500	1.616300	1.616200	1.616100	1.615900	1.615300	1.615200	1.615000	1.614900	1.614800	1.614600	1.614600	1.614600	1.614000	1.613900	1.613900	1.613900
84.000000	1.627200	1.622600	1.622700	1.623500	1.622100	1.602600	1.622800	1.622500	1.622800	1.623200	1.623200	1.623100	1.622800	1.622800	1.623100	1.623300	1.623500	1.623600	1.623700	1.623800	1.623700	1.623300	1.623100	1.623000	1.622900	1.622700	1.622600	1.622000	1.621900	1.621700	1.621600	1.621500	1.621400	1.621300	1.621300	1.620800	1.620700	1.620600	1.620600
85.000000	1.632700	1.628300	1.628400	1.629100	1.627800	1.608200	1.628400	1.628200	1.628500	1.628800	1.628900	1.628800	1.628500	1.628500	1.628800	1.629000	1.629100	1.629300	1.629400	1.629400	1.629300	1.628900	1.628800	1.628700	1.628500	1.628400	1.628200	1.627700	1.627600	1.627400	1.627300	1.627200	1.627100	1.627100	1.627000	1.626500	1.626400	1.626400	1.626400
86.000000	1.637200	1.633000	1.633100	1.633800	1.632500	1.612800	1.633100	1.632900	1.633100	1.633500	1.633500	1.633500	1.633200	1.633200	1.633400	1.633600	1.633800	1.633900	1.634000	1.634000	1.633900	1.633600	1.633400	1.633300	1.633200	1.633100	1.632900	1.632400	1.632300	1.632100	1.632000	1.631900	1.631800	1.631800	1.631800	1.631300	1.631200	1.631200	1.631100
87.000000	1.640700	1.636700	1.636700	1.637400	1.636200	1.616500	1.636800	1.636600	1.636800	1.637100	1.637200	1.637100	1.636800	1.636900	1.637100	1.637300	1.637400	1.637500	1.637600	1.637700	1.637600	1.637200	1.637100	1.637000	1.636900	1.636800	1.636600	1.636100	1.636000	1.635900	1.635700	1.635700	1.635600	1.635500	1.635500	1.635000	1.635000	1.634900	1.634900
88.000000	1.643200	1.639300	1.639400	1.640100	1.638900	1.619100	1.639400	1.639300	1.639500	1.639800	1.639900	1.639800	1.639500	1.639500	1.639800	1.639900	1.640100	1.640200	1.640300	1.640300	1.640200	1.639900	1.639800	1.639700	1.639600	1.639400	1.639300	1.638900	1.638700	1.638600	1.638500	1.638400	1.638300	1.638300	1.638200	1.637800	1.637700	1.637700	1.637700
89.000000	1.644700	1.641000	1.641100	1.641700	1.640600	1.620800	1.641100	1.640900	1.641100	1.641500	1.641500	1.641400	1.641200	1.641200	1.641400	1.641600	1.641700	1.641800	1.641900	1.641900	1.641900	1.641500	1.641400	1.641300	1.641200	1.641100	1.641000	1.640600	1.640400	1.640300	1.640200	1.640100	1.640000	1.640000	1.640000	1.639500	1.639500	1.639400	1.639400
90.000000	1.645200	1.641700	1.641700	1.642300	1.641300	1.621500	1.641800	1.641600	1.641800	1.642100	1.642200	1.642100	1.641900	1.641900	1.642100	1.642200	1.642300	1.642500	1.642600	1.642600	1.642500	1.642200	1.642100	1.642000	1.641900	1.641800	1.641700	1.641200	1.641100	1.641000	1.640900	1.640800	1.640700	1.640700	1.640700	1.640300	1.640200	1.640200	1.640200
91.000000	1.644700	1.641300	1.641400	1.642000	1.641000	1.621100	1.641400	1.641300	1.641500	1.641800	1.641800	1.641700	1.641500	1.641500	1.641700	1.641900	1.642000	1.642100	1.642200	1.642200	1.642100	1.641800	1.641700	1.641600	1.641500	1.641400	1.641300	1.640900	1.640800	1.640700	1.640600	1.640500	1.640400	1.640400	1.640400	1.640000	1.639900	1.639900	1.639900
92.000000	1.643200	1.640000	1.640100	1.640600	1.639600	1.619800	1.640100	1.639900	1.640100	1.640400	1.640400	1.640400	1.640200	1.640200	1.640400	1.640500	1.640600	1.640700	1.640800	1.640800	1.640800	1.640500	1.640400	1.640300	1.640200	1.640100	1.640000	1.639600	1.639500	1.639400	1.639300	1.639200	1.639100	1.639100	1.639100	1.638700	1.638700	1.638600	1.638600
93.000000	1.640700	1.637600	1.637700	1.638200	1.637300	1.617500	1.637700	1.637600	1.637800	1.638000	1.638100	1.638000	1.637800	1.637800	1.638000	1.638100	1.638300	1.638400	1.638400	1.638500	1.638400	1.638100	1.638000	1.637900	1.637900	1.637800	1.637700	1.637300	1.637200	1.637100	1.637000	1.636900	1.636800	1.636800	1.636800	1.636400	1.636400	1.636300	1.636300
94.000000	1.637200	1.634300	1.634400	1.634900	1.634000	1.614200	1.634400	1.634300	1.634400	1.634700	1.634700	1.634700	1.634500	1.634500	1.634700	1.634800	1.634900	1.635000	1.635100	1.635100	1.635000	1.634800	1.634700	1.634600	1.634500	1.634400	1.634300	1.634000	1.633900	1.633800	1.633700	1.633600	1.633500	1.633500	1.633500	1.633100	1.633100	1.633100	1.633000
95.000000	1.632800	1.630000	1.630000	1.630500	1.629700	1.609900	1.630100	1.629900	1.630100	1.630300	1.630400	1.630300	1.630100	1.630100	1.630300	1.630400	1.630500	1.630600	1.630700	1.630700	1.630700	1.630400	1.630300	1.630200	1.630200	1.630100	1.630000	1.629600	1.629500	1.629400	1.629400	1.629300	1.629200	1.629200	1.629200	1.628900	1.628800	1.628800	1.628800
96.000000	1.627300	1.624600	1.624700	1.625200	1.624400	1.604700	1.624700	1.624600	1.624800	1.625000	1.625000	1.625000	1.624800	1.624800	1.625000	1.625100	1.625200	1.625300	1.625300	1.625400	1.625300	1.625100	1.625000	1.624900	1.624800	1.624700	1.624700	1.624300	1.624200	1.624100	1.624100	1.624000	1.623900	1.623900	1.623900	1.623600	1.623500	1.623500	1.623500
97.000000	1.620900	1.618300	1.618400	1.618800	1.618100	1.598500	1.618400	1.618300	1.618400	1.618700	1.618700	1.618700	1.618500	1.618500	1.618700	1.618800	1.618900	1.618900	1.619000	1.619000	1.619000	1.618700	1.618700	1.618600	1.618500	1.618400	1.618400	1.618000	1.617900	1.617900	1.617800	1.617700	1.617700	1.617700	1.617600	1.617300	1.617300	1.617300	1.617200
98.000000	1.613500	1.611000	1.611100	1.611500	1.610800	1.591300	1.611100	1.611000	1.611200	1.611400	1.611400	1.611400	1.611200	1.611200	1.611400	1.611500	1.611500	1.611600	1.611700	1.611700	1.611700	1.611400	1.611400	1.611300	1.611200	1.611200	1.611100	1.610800	1.610700	1.610600	1.610500	1.610500	1.610400	1.610400	1.610400	1.610100	1.610000	1.610000	1.610000
99.000000	1.605100	1.602800	1.602800	1.603300	1.602500	1.583100	1.602900	1.602800	1.602900	1.603100	1.603100	1.603100	1.602900	1.602900	1.603100	1.603200	1.603300	1.603400	1.603400	1.603400	1.603400	1.603200	1.603100	1.603000	1.603000	1.602900	1.602800	1.602500	1.602500	1.602400	1.602300	1.602300	1.602200	1.602200	1.602200	1.601900	1.601800	1.601800	1.601800
100.000000	1.595800	1.593600	1.593600	1.594000	1.593400	1.574100	1.593700	1.593600	1.593700	1.593900	1.593900	1.593900	1.593700	1.593700	1.593900	1.594000	1.594100	1.594100	1.594200	1.594200	1.594200	1.594000	1.593900	1.593800	1.593800	1.593700	1.593600	1.593400	1.593300	1.593200	1.593100	1.593100	1.593000	1.593000	1.593000	1.592700	1.592700	1.592700	1.592700
101.000000	1.585600	1.583400	1.583500	1.583900	1.583200	1.564100	1.583500	1.583400	1.583600	1.583700	1.583800	1.583700	1.583600	1.583600	1.583700	1.583800	1.583900	1.584000	1.584000	1.584000	1.584000	1.583800	1.583700	1.583700	1.583600	1.583600	1.583500	1.583200	1.583100	1.583100	1.583000	1.583000	1.582900	1.582900	1.582900	1.582600	1.582600	1.582600	1.582600
102.000000	1.574400	1.572400	1.572400	1.572800	1.572200	1.553100	1.572400	1.572400	1.572500	1.572600	1.572700	1.572600	1.572500	1.572500	1.572600	1.572700	1.572800	1.572900	1.572900	1.572900	1.572900	1.572700	1.572700	1.572600	1.572500	1.572500	1.572400	1.572200	1.572100	1.572000	1.572000	1.571900	1.571900	1.571800	1.571800	1.571600	1.571600	1.571500	1.571500
103.000000	1.562300	1.560400	1.560400	1.560800	1.560200	1.541300	1.560500	1.560400	1.560500	1.560600	1.560700	1.560600	1.560500	1.560500	1.560600	1.560700	1.560800	1.560900	1.560900	1.560900	1.560900	1.560700	1.560600	1.560600	1.560500	1.560500	1.560400	1.560200	1.560100	1.560000	1.560000	1.560000	1.559900	1.559900	1.559900	1.559600	1.559600	1.559600	1.559600
104.000000	1.549300	1.547500	1.547500	1.547900	1.547300	1.528500	1.547600	1.547500	1.547600	1.547700	1.547800	1.547700	1.547600	1.547600	1.547700	1.547800	1.547900	1.547900	1.548000	1.548000	1.548000	1.547800	1.547700	1.547700	1.547600	1.547600	1.547500	1.547300	1.547200	1.547200	1.547100	1.547100	1.547000	1.547000	1.547000	1.546800	1.546700	1.546700	1.546700
105.000000	1.535500	1.533700	1.533700	1.534100	1.533500	1.514900	1.533800	1.533700	1.533800	1.533900	1.534000	1.533900	1.533800	1.533800	1.533900	1.534000	1.534100	1.534100	1.534200	1.534200	1.534200	1.534000	1.534000	1.533900	1.533900	1.533800	1.533700	1.533500	1.533500	1.533400	1.533300	1.533300	1.533300	1.533300	1.533200	1.533000	1.533000	1.533000	1.533000
106.000000	1.520800	1.519000	1.519100	1.519400	1.518900	1.500500	1.519100	1.519000	1.519100	1.519300	1.519300	1.519300	1.519200	1.519200	1.519300	1.519400	1.519400	1.519500	1.519500	1.519500	1.519500	1.519400	1.519300	1.519300	1.519200	1.519200	1.519100	1.518900	1.518800	1.518800	1.518700	1.518700	1.518600	1.518600	1.518600	1.518400	1.518400	1.518400	1.518400
107.000000	1.505200	1.503600	1.503600	1.503900	1.503400	1.485200	1.503600	1.503600	1.503600	1.503800	1.503800	1.503800	1.503700	1.503700	1.503800	1.503800	1.503900	1.504000	1.504000	1.504000	1.504000	1.503800	1.503800	1.503700	1.503700	1.503700	1.503600	1.503400	1.503300	1.503300	1.503200	1.503200	1.503200	1.503200	1.503100	1.503000	1.502900	1.502900	1.502900
108.000000	1.488800	1.487200	1.487300	1.487500	1.487100	1.469100	1.487300	1.487200	1.487300	1.487400	1.487500	1.487400	1.487300	1.487300	1.487400	1.487500	1.487600	1.487600	1.487700	1.487700	1.487600	1.487500	1.487500	1.487400	1.487400	1.487300	1.487300	1.487100	1.487000	1.487000	1.486900	1.486900	1.486900	1.486800	1.486800	1.486700	1.486600	1.486600	1.486600
109.000000	1.471600	1.470100	1.470100	1.470400	1.469900	1.452100	1.470100	1.470100	1.470200	1.470300	1.470300	1.470300	1.470200	1.470200	1.470300	1.470400	1.470400	1.470500	1.470500	1.470500	1.470500	1.470300	1.470300	1.470300	1.470200	1.470200	1.470100	1.470000	1.469900	1.469800	1.469800	1.469800	1.469700	1.469700	1.469700	1.469500	1.469500	1.469500	1.469500
110.000000	1.453600	1.452100	1.452200	1.452400	1.452000	1.434400	1.452200	1.452200	1.452200	1.452400	1.452400	1.452400	1.452300	1.452300	1.452400	1.452400	1.452500	1.452500	1.452500	1.452600	1.452500	1.452400	1.452400	1.452300	1.452300	1.452200	1.452200	1.452000	1.452000	1.451900	1.451900	1.451900	1.451800	1.451800	1.451800	1.451600	1.451600	1.451600	1.451600
111.000000	1.434800	1.433400	1.433500	1.433700	1.433300	1.416000	1.433500	1.433500	1.433500	1.433600	1.433700	1.433600	1.433600	1.433600	1.433600	1.433700	1.433700	1.433800	1.433800	1.433800	1.433800	1.433700	1.433700	1.433600	1.433600	1.433500	1.433500	1.433300	1.433300	1.433200	1.433200	1.433200	1.433100	1.433100	1.433100	1.433000	1.432900	1.432900	1.432900
112.000000	1.415300	1.414000	1.414000	1.414300	1.413900	1.396700	1.414100	1.414000	1.414100	1.414200	1.414200	1.414200	1.414100	1.414100	1.414200	1.414200	1.414300	1.414300	1.414400	1.414400	1.414300	1.414200	1.414200	1.414200	1.414100	1.414100	1.414000	1.413900	1.413900	1.413800	1.413800	1.413800	1.413700	1.413700	1.413700	1.413500	1.413500	1.413500	1.413500
113.000000	1.395000	1.393800	1.393900	1.394100	1.393700	1.376800	1.393900	1.393800	1.393900	1.394000	1.394000	1.394000	1.393900	1.393900	1.394000	1.394100	1.394100	1.394200	1.394200	1.394200	1.394200	1.394100	1.394000	1.394000	1.394000	1.393900	1.393900	1.393700	1.393700	1.393700	1.393600	1.393600	1.393600	1.393600	1.393500	1.393400	1.393400	1.393400	1.393400
114.000000	1.374100	1.373000	1.373000	1.373200	1.372900	1.356200	1.373000	1.373000	1.373100	1.373100	1.373200	1.373100	1.373100	1.373100	1.373100	1.373200	1.373200	1.373300	1.373300	1.373300	1.373300	1.373200	1.373200	1.373100	1.373100	1.373100	1.373000	1.372900	1.372800	1.372800	1.372800	1.372800	1.372700	1.372700	1.372700	1.372600	1.372500	1.372500	1.372500
115.000000	1.352500	1.351400	1.351500	1.351700	1.351300	1.335000	1.351500	1.351500	1.351500	1.351600	1.351600	1.351600	1.351500	1.351500	1.351600	1.351700	1.351700	1.351700	1.351800	1.351800	1.351700	1.351700	1.351600	1.351600	1.351600	1.351500	1.351500	1.351400	1.351300	1.351300	1.351200	1.351200	1.351200	1.351200	1.351200	1.351100	1.351000	1.351000	1.351000
116.000000	1.330300	1.329300	1.329300	1.329500	1.329200	1.313100	1.329300	1.329300	1.329300	1.329400	1.329400	1.329400	1.329400	1.329400	1.329400	1.329500	1.329500	1.329500	1.329600	1.329600	1.329600	1.329500	1.329400	1.329400	1.329400	1.329300	1.329300	1.329200	1.329100	1.329100	1.329100	1.329100	1.329000	1.329000	1.329000	1.328900	1.328900	1.328900	1.328900
117.000000	1.307500	1.306500	1.306500	1.306700	1.306400	1.290500	1.306500	1.306500	1.306500	1.306600	1.306600	1.306600	1.306600	1.306600	1.306600	1.306700	1.306700	1.306700	1.306800	1.306800	1.306700	1.306700	1.306600	1.306600	1.306600	1.306500	1.306500	1.306400	1.306400	1.306300	1.306300	1.306300	1.306300	1.306200	1.306200	1.306100	1.306100	1.306100	1.306100
118.000000	1.284000	1.283100	1.283100	1.283300	1.283000	1.267500	1.283100	1.283100	1.283200	1.283200	1.283200	1.283200	1.283200	1.283200	1.283200	1.283300	1.283300	1.283300	1.283400	1.283400	1.283300	1.283300	1.283200	1.283200	1.283200	1.283200	1.283100	1.283000	1.283000	1.283000	1.282900	1.282900	1.282900	1.282900	1.282900	1.282800	1.282700	1.282700	1.282700
119.000000	1.260000	1.259100	1.259200	1.259300	1.259100	1.243800	1.259200	1.259200	1.259200	1.259300	1.259300	1.259300	1.259200	1.259200	1.259300	1.259300	1.259400	1.259400	1.259400	1.259400	1.259400	1.259300	1.259300	1.259300	1.259200	1.259200	1.259200	1.259100	1.259000	1.259000	1.259000	1.259000	1.258900	1.258900	1.258900	1.258800	1.258800	1.258800	1.258800
120.000000	1.235500	1.234700	1.234700	1.234800	1.234600	1.219600	1.234700	1.234700	1.234700	1.234800	1.234800	1.234800	1.234700	1.234700	1.234800	1.234800	1.234900	1.234900	1.234900	1.234900	1.234900	1.234800	1.234800	1.234800	1.234800	1.234700	1.234700	1.234600	1.234600	1.234500	1.234500	1.234500	1.234500	1.234500	1.234500	1.234400	1.234400	1.234400	1.234300
121.000000	1.210500	1.209700	1.209700	1.209900	1.209600	1.195000	1.209700	1.209700	1.209700	1.209800	1.209800	1.209800	1.209800	1.209800	1.209800	1.209900	1.209900	1.209900	1.209900	1.209900	1.209900	1.209800	1.209800	1.209800	1.209800	1.209800	1.209700	1.209600	1.209600	1.209600	1.209600	1.209500	1.209500	1.209500	1.209500	1.209400	1.209400	1.209400	1.209400
122.000000	1.185000	1.184200	1.184300	1.184400	1.184200	1.169800	1.184300	1.184300	1.184300	1.184400	1.184400	1.184400	1.184300	1.184300	1.184400	1.184400	1.184400	1.184400	1.184500	1.184500	1.184500	1.184400	1.184400	1.184300	1.184300	1.184300	1.184300	1.184200	1.184200	1.184100	1.184100	1.184100	1.184100	1.184100	1.184100	1.184000	1.184000	1.184000	1.184000
123.000000	1.159100	1.158400	1.158400	1.158500	1.158300	1.144300	1.158400	1.158400	1.158400	1.158500	1.158500	1.158500	1.158400	1.158400	1.158500	1.158500	1.158500	1.158600	1.158600	1.158600	1.158600	1.158500	1.158500	1.158500	1.158400	1.158400	1.158400	1.158300	1.158300	1.158300	1.158200	1.158200	1.158200	1.158200	1.158200	1.158100	1.158100	1.158100	1.158100
124.000000	1.132700	1.132100	1.132100	1.132200	1.132000	1.118300	1.132100	1.132100	1.132100	1.132200	1.132200	1.132200	1.132100	1.132100	1.132200	1.132200	1.132200	1.132200	1.132300	1.132300	1.132300	1.132200	1.132200	1.132200	1.132100	1.132100	1.132100	1.132000	1.132000	1.132000	1.131900	1.131900	1.131900	1.131900	1.131900	1.131800	1.131800	1.131800	1.131800
125.000000	1.106000	1.105400	1.105400	1.105500	1.105300	1.091900	1.105400	1.105400	1.105400	1.105500	1.105500	1.105500	1.105400	1.105400	1.105500	1.105500	1.105500	1.105600	1.105600	1.105600	1.105600	1.105500	1.105500	1.105500	1.105500	1.105400	1.105400	1.105300	1.105300	1.105300	1.105300	1.105300	1.105300	1.105200	1.105200	1.105200	1.105200	1.105200	1.105100
126.000000	1.079000	1.078400	1.078400	1.078500	1.078300	1.065300	1.078400	1.078400	1.078400	1.078500	1.078500	1.078500	1.078400	1.078400	1.078500	1.078500	1.078500	1.078500	1.078600	1.078600	1.078500	1.078500	1.078500	1.078500	1.078400	1.078400	1.078400	1.078300	1.078300	1.078300	1.078300	1.078300	1.078200	1.078200	1.078200	1.078200	1.078200	1.078200	1.078100
127.000000	1.051600	1.051000	1.051100	1.051200	1.051000	1.038300	1.051100	1.051100	1.051100	1.051100	1.051100	1.051100	1.051100	1.051100	1.051100	1.051200	1.051200	1.051200	1.051200	1.051200	1.051200	1.051200	1.051100	1.051100	1.051100	1.051100	1.051100	1.051000	1.051000	1.051000	1.051000	1.050900	1.050900	1.050900	1.050900	1.050900	1.050800	1.050800	1.050800
128.000000	1.024000	1.023400	1.023500	1.023600	1.023400	1.011000	1.023500	1.023500	1.023500	1.023500	1.023500	1.023500	1.023500	1.023500	1.023500	1.023600	1.023600	1.023600	1.023600	1.023600	1.023600	1.023600	1.023500	1.023500	1.023500	1.023500	1.023500	1.023400	1.023400	1.023400	1.023400	1.023300	1.023300	1.023300	1.023300	1.023300	1.023300	1.023200	1.023200
129.000000	0.996100	0.995600	0.995600	0.995700	0.995600	0.983500	0.995600	0.995600	0.995600	0.995700	0.995700	0.995700	0.995600	0.995600	0.995700	0.995700	0.995700	0.995700	0.995800	0.995800	0.995700	0.995700	0.995700	0.995700	0.995700	0.995600	0.995600	0.995600	0.995500	0.995500	0.995500	0.995500	0.995500	0.995500	0.995500	0.995400	0.995400	0.995400	0.995400
130.000000	0.968000	0.967500	0.967600	0.967600	0.967500	0.955800	0.967600	0.967600	0.967600	0.967600	0.967600	0.967600	0.967600	0.967600	0.967600	0.967600	0.967700	0.967700	0.967700	0.967700	0.967700	0.967600	0.967600	0.967600	0.967600	0.967600	0.967600	0.967500	0.967500	0.967500	0.967500	0.967500	0.967400	0.967400	0.967400	0.967400	0.967400	0.967400	0.967400
131.000000	0.939800	0.939300	0.939300	0.939400	0.939300	0.927900	0.939300	0.939300	0.939400	0.939400	0.939400	0.939400	0.939400	0.939400	0.939400	0.939400	0.939400	0.939400	0.939500	0.939500	0.939400	0.939400	0.939400	0.939400	0.939400	0.939400	0.939300	0.939300	0.939300	0.939300	0.939200	0.939200	0.939200	0.939200	0.939200	0.939200	0.939200	0.939200	0.939200
132.000000	0.911400	0.910900	0.911000	0.911000	0.910900	0.899900	0.911000	0.911000	0.911000	0.911000	0.911000	0.911000	0.911000	0.911000	0.911000	0.911000	0.911000	0.911100	0.911100	0.911100	0.911100	0.911000	0.911000	0.911000	0.911000	0.911000	0.911000	0.910900	0.910900	0.910900	0.910900	0.910900	0.910900	0.910900	0.910900	0.910800	0.910800	0.910800	0.910800
133.000000	0.882900	0.882500	0.882500	0.882600	0.882400	0.871800	0.882500	0.882500	0.882500	0.882500	0.882500	0.882500	0.882500	0.882500	0.882500	0.882600	0.882600	0.882600	0.882600	0.882600	0.882600	0.882600	0.882500	0.882500	0.882500	0.882500	0.882500	0.882400	0.882400	0.882400	0.882400	0.882400	0.882400	0.882400	0.882400	0.882300	0.882300	0.882300	0.882300
134.000000	0.854300	0.853900	0.853900	0.854000	0.853900	0.843600	0.853900	0.853900	0.854000	0.854000	0.854000	0.854000	0.854000	0.854000	0.854000	0.854000	0.854000	0.854000	0.854000	0.854000	0.854000	0.854000	0.854000	0.854000	0.854000	0.854000	0.853900	0.853900	0.853900	0.853900	0.853900	0.853900	0.853900	0.853800	0.853800	0.853800	0.853800	0.853800	0.853800
135.000000	0.825700	0.825300	0.825400	0.825400	0.825300	0.815300	0.825400	0.825300	0.825400	0.825400	0.825400	0.825400	0.825400	0.825400	0.825400	0.825400	0.825400	0.825400	0.825400	0.825500	0.825400	0.825400	0.825400	0.825400	0.825400	0.825400	0.825400	0.825300	0.825300	0.825300	0.825300	0.825300	0.825300	0.825300	0.825300	0.825200	0.825200	0.825200	0.825200
136.000000	0.797100	0.796800	0.796800	0.796800	0.796700	0.787100	0.796800	0.796800	0.796800	0.796800	0.796800	0.796800	0.796800	0.796800	0.796800	0.796800	0.796800	0.796900	0.796900	0.796900	0.796900	0.796800	0.796800	0.796800	0.796800	0.796800	0.796800	0.796700	0.796700	0.796700	0.796700	0.796700	0.796700	0.796700	0.796700	0.796700	0.796600	0.796600	0.796600
137.000000	0.768500	0.768200	0.768200	0.768300	0.768200	0.758900	0.768200	0.768200	0.768200	0.768300	0.768300	0.768300	0.768200	0.768200	0.768300	0.768300	0.768300	0.768300	0.768300	0.768300	0.768300	0.768300	0.768300	0.768300	0.768200	0.768200	0.768200	0.768200	0.768200	0.768200	0.768200	0.768200	0.768100	0.768100	0.768100	0.768100	0.768100	0.768100	0.768100
138.000000	0.740000	0.739700	0.739700	0.739800	0.739700	0.730800	0.739700	0.739700	0.739800	0.739800	0.739800	0.739800	0.739800	0.739800	0.739800	0.739800	0.739800	0.739800	0.739800	0.739800	0.739800	0.739800	0.739800	0.739800	0.739800	0.739800	0.739700	0.739700	0.739700	0.739700	0.739700	0.739700	0.739700	0.739700	0.739700	0.739600	0.739600	0.739600	0.739600
139.000000	0.711600	0.711400	0.711400	0.711400	0.711300	0.702700	0.711400	0.711400	0.711400	0.711400	0.711400	0.711400	0.711400	0.711400	0.711400	0.711400	0.711400	0.711400	0.711400	0.711400	0.711400	0.711400	0.711400	0.711400	0.711400	0.711400	0.711400	0.711300	0.711300	0.711300	0.711300	0.711300	0.711300	0.711300	0.711300	0.711300	0.711300	0.711300	0.711300
140.000000	0.683400	0.683100	0.683100	0.683200	0.683100	0.674800	0.683100	0.683100	0.683100	0.683200	0.683200	0.683200	0.683100	0.683100	0.683200	0.683200	0.683200	0.683200	0.683200	0.683200	0.683200	0.683200	0.683200	0.683100	0.683100	0.683100	0.683100	0.683100	0.683100	0.683100	0.683100	0.683100	0.683100	0.683100	0.683100	0.683000	0.683000	0.683000	0.683000
141.000000	0.655300	0.655000	0.655000	0.655100	0.655000	0.647100	0.655100	0.655000	0.655100	0.655100	0.655100	0.655100	0.655100	0.655100	0.655100	0.655100	0.655100	0.655100	0.655100	0.655100	0.655100	0.655100	0.655100	0.655100	0.655100	0.655100	0.655100	0.655000	0.655000	0.655000	0.655000	0.655000	0.655000	0.655000	0.655000	0.655000	0.655000	0.655000	0.655000
142.000000	0.627400	0.627200	0.627200	0.627200	0.627200	0.619600	0.627200	0.627200	0.627200	0.627200	0.627200	0.627200	0.627200	0.627200	0.627200	0.627200	0.627200	0.627200	0.627200	0.627200	0.627200	0.627200	0.627200	0.627200	0.627200	0.627200	0.627200	0.627200	0.627200	0.627200	0.627100	0.627100	0.627100	0.627100	0.627100	0.627100	0.627100	0.627100	0.627100
143.000000	0.599800	0.599600	0.599600	0.599600	0.599500	0.592300	0.599600	0.599600	0.599600	0.599600	0.599600	0.599600	0.599600	0.599600	0.599600	0.599600	0.599600	0.599600	0.599600	0.599600	0.599600	0.599600	0.599600	0.599600	0.599600	0.599600	0.599600	0.599600	0.599500	0.599500	0.599500	0.599500	0.599500	0.599500	0.599500	0.599500	0.599500	0.599500	0.599500
144.000000	0.572400	0.572200	0.572200	0.572300	0.572200	0.565300	0.572200	0.572200	0.572200	0.572200	0.572200	0.572200	0.572200	0.572200	0.572200	0.572300	0.572300	0.572300	0.572300	0.572300	0.572300	0.572300	0.572200	0.572200	0.572200	0.572200	0.572200	0.572200	0.572200	0.572200	0.572200	0.572200	0.572200	0.572200	0.572200	0.572200	0.572200	0.572200	0.572200
145.000000	0.545300	0.545200	0.545200	0.545200	0.545200	0.538600	0.545200	0.545200	0.545200	0.545200	0.545200	0.545200	0.545200	0.545200	0.545200	0.545200	0.545200	0.545200	0.545200	0.545200	0.545200	0.545200	0.545200	0.545200	0.545200	0.545200	0.545200	0.545200	0.545200	0.545200	0.545200	0.545200	0.545100	0.545100	0.545100	0.545100	0.545100	0.545100	0.545100
146.000000	0.518600	0.518500	0.518500	0.518500	0.518500	0.512200	0.518500	0.518500	0.518500	0.518500	0.518500	0.518500	0.518500	0.518500	0.518500	0.518500	0.518500	0.518500	0.518500	0.518500	0.518500	0.518500	0.518500	0.518500	0.518500	0.518500	0.518500	0.518500	0.518500	0.518500	0.518500	0.518500	0.518500	0.518500	0.518400	0.518400	0.518400	0.518400	0.518400
147.000000	0.492300	0.492200	0.492200	0.492200	0.492100	0.486200	0.492200	0.492200	0.492200	0.492200	0.492200	0.492200	0.492200	0.492200	0.492200	0.492200	0.492200	0.492200	0.492200	0.492200	0.492200	0.492200	0.492200	0.492200	0.492200	0.492200	0.492200	0.492100	0.492100	0.492100	0.492100	0.492100	0.492100	0.492100	0.492100	0.492100	0.492100	0.492100	0.492100
148.000000	0.466400	0.466200	0.466200	0.466300	0.466200	0.460600	0.466200	0.466200	0.466200	0.466300	0.466300	0.466300	0.466300	0.466300	0.466300	0.466300	0.466300	0.466300	0.466300	0.466300	0.466300	0.466300	0.466300	0.466300	0.466300	0.466300	0.466200	0.466200	0.466200	0.466200	0.466200	0.466200	0.466200	0.466200	0.466200	0.466200	0.466200	0.466200	0.466200
149.000000	0.440900	0.440800	0.440800	0.440800	0.440700	0.435400	0.440800	0.440800	0.440800	0.440800	0.440800	0.440800	0.440800	0.440800	0.440800	0.440800	0.440800	0.440800	0.440800	0.440800	0.440800	0.440800	0.440800	0.440800	0.440800	0.440800	0.440800	0.440800	0.440700	0.440700	0.440700	0.440700	0.440700	0.440700	0.440700	0.440700	0.440700	0.440700	0.440700
150.000000	0.415800	0.415700	0.415700	0.415800	0.415700	0.410700	0.415700	0.415700	0.415800	0.415800	0.415800	0.415800	0.415800	0.415800	0.415800	0.415800	0.415800	0.415800	0.415800	0.415800	0.415800	0.415800	0.415800	0.415800	0.415800	0.415800	0.415800	0.415700	0.415700	0.415700	0.415700	0.415700	0.415700	0.415700	0.415700	0.415700	0.415700	0.415700	0.415700
151.000000	0.391300	0.391200	0.391200	0.391200	0.391200	0.386500	0.391200	0.391200	0.391200	0.391200	0.391200	0.391200	0.391200	0.391200	0.391200	0.391200	0.391300	0.391300	0.391300	0.391300	0.391300	0.391200	0.391200	0.391200	0.391200	0.391200	0.391200	0.391200	0.391200	0.391200	0.391200	0.391200	0.391200	0.391200	0.391200	0.391200	0.391200	0.391200	0.391200
152.000000	0.367300	0.367200	0.367200	0.367300	0.367200	0.362800	0.367200	0.367200	0.367200	0.367300	0.367300	0.367300	0.367300	0.367300	0.367300	0.367300	0.367300	0.367300	0.367300	0.367300	0.367300	0.367300	0.367300	0.367300	0.367300	0.367300	0.367200	0.367200	0.367200	0.367200	0.367200	0.367200	0.367200	0.367200	0.367200	0.367200	0.367200	0.367200	0.367200
153.000000	0.343900	0.343800	0.343800	0.343800	0.343800	0.339700	0.343800	0.343800	0.343800	0.343800	0.343800	0.343800	0.343800	0.343800	0.343800	0.343800	0.343800	0.343800	0.343800	0.343800	0.343800	0.343800	0.343800	0.343800	0.343800	0.343800	0.343800	0.343800	0.343800	0.343800	0.343800	0.343800	0.343800	0.343800	0.343800	0.343800	0.343800	0.343800	0.343800
154.000000	0.321000	0.321000	0.321000	0.321000	0.321000	0.317100	0.321000	0.321000	0.321000	0.321000	0.321000	0.321000	0.321000	0.321000	0.321000	0.321000	0.321000	0.321000	0.321000	0.321000	0.321000	0.321000	0.321000	0.321000	0.321000	0.321000	0.321000	0.321000	0.321000	0.321000	0.321000	0.321000	0.321000	0.321000	0.321000	0.321000	0.320900	0.320900	0.320900
155.000000	0.298800	0.298700	0.298700	0.298800	0.298700	0.295200	0.298700	0.298700	0.298800	0.298800	0.298800	0.298800	0.298800	0.298800	0.298800	0.298800	0.298800	0.298800	0.298800	0.298800	0.298800	0.298800	0.298800	0.298800	0.298800	0.298800	0.298700	0.298700	0.298700	0.298700	0.298700	0.298700	0.298700	0.298700	0.298700	0.298700	0.298700	0.298700	0.298700
156.000000	0.277200	0.277200	0.277200	0.277200	0.277200	0.273800	0.277200	0.277200	0.277200	0.277200	0.277200	0.277200	0.277200	0.277200	0.277200	0.277200	0.277200	0.277200	0.277200	0.277200	0.277200	0.277200	0.277200	0.277200	0.277200	0.277200	0.277200	0.277200	0.277200	0.277200	0.277200	0.277200	0.277100	0.277100	0.277100	0.277100	0.277100	0.277100	0.277100
157.000000	0.256300	0.256200	0.256200	0.256300	0.256200	0.253200	0.256200	0.256200	0.256200	0.256200	0.256200	0.256200	0.256200	0.256200	0.256200	0.256300	0.256300	0.256300	0.256300	0.256300	0.256300	0.256300	0.256200	0.256200	0.256200	0.256200	0.256200	0.256200	0.256200	0.256200	0.256200	0.256200	0.256200	0.256200	0.256200	0.256200	0.256200	0.256200	0.256200
158.000000	0.236100	0.236000	0.236000	0.236000	0.236000	0.233200	0.236000	0.236000	0.236000	0.236000	0.236000	0.236000	0.236000	0.236000	0.236000	0.236000	0.236000	0.236000	0.236000	0.236000	0.236000	0.236000	0.236000	0.236000	0.236000	0.236000	0.236000	0.236000	0.236000	0.236000	0.236000	0.236000	0.236000	0.236000	0.236000	0.236000	0.236000	0.236000	0.236000
159.000000	0.216500	0.216500	0.216500	0.216500	0.216500	0.213900	0.216500	0.216500	0.216500	0.216500	0.216500	0.216500	0.216500	0.216500	0.216500	0.216500	0.216500	0.216500	0.216500	0.216500	0.216500	0.216500	0.216500	0.216500	0.216500	0.216500	0.216500	0.216500	0.216500	0.216500	0.216500	0.216500	0.216500	0.216500	0.216500	0.216500	0.216500	0.216500	0.216500
160.000000	0.197800	0.197700	0.197700	0.197700	0.197700	0.195400	0.197700	0.197700	0.197700	0.197700	0.197700	0.197700	0.197700	0.197700	0.197700	0.197700	0.197800	0.197800	0.197800	0.197800	0.197800	0.197700	0.197700	0.197700	0.197700	0.197700	0.197700	0.197700	0.197700	0.197700	0.197700	0.197700	0.197700	0.197700	0.197700	0.197700	0.197700	0.197700	0.197700
161.000000	0.179800	0.179700	0.179700	0.179700	0.179700	0.177600	0.179700	0.179700	0.179700	0.179700	0.179700	0.179700	0.179700	0.179700	0.179700	0.179700	0.179700	0.179700	0.179800	0.179800	0.179700	0.179700	0.179700	0.179700	0.179700	0.179700	0.179700	0.179700	0.179700	0.179700	0.179700	0.179700	0.179700	0.179700	0.179700	0.179700	0.179700	0.179700	0.179700
162.000000	0.162500	0.162500	0.162500	0.162500	0.162500	0.160600	0.162500	0.162500	0.162500	0.162500	0.162500	0.162500	0.162500	0.162500	0.162500	0.162500	0.162500	0.162500	0.162500	0.162500	0.162500	0.162500	0.162500	0.162500	0.162500	0.162500	0.162500	0.162500	0.162500	0.162500	0.162500	0.162500	0.162500	0.162500	0.162500	0.162500	0.162500	0.162500	0.162500
163.000000	0.146100	0.146100	0.146100	0.146100	0.146100	0.144400	0.146100	0.146100	0.146100	0.146100	0.146100	0.146100	0.146100	0.146100	0.146100	0.146100	0.146100	0.146100	0.146100	0.146100	0.146100	0.146100	0.146100	0.146100	0.146100	0.146100	0.146100	0.146100	0.146100	0.146100	0.146100	0.146100	0.146100	0.146100	0.146100	0.146100	0.146100	0.146100	0.146100
164.000000	0.130600	0.130500	0.130500	0.130500	0.130500	0.129000	0.130500	0.130500	0.130500	0.130500	0.130500	0.130500	0.130500	0.130500	0.130500	0.130500	0.130500	0.130500	0.130500	0.130500	0.130500	0.130500	0.130500	0.130500	0.130500	0.130500	0.130500	0.130500	0.130500	0.130500	0.130500	0.130500	0.130500	0.130500	0.130500	0.130500	0.130500	0.130500	0.130500
165.000000	0.115800	0.115800	0.115800	0.115800	0.115800	0.114500	0.115800	0.115800	0.115800	0.115800	0.115800	0.115800	0.115800	0.115800	0.115800	0.115800	0.115800	0.115800	0.115800	0.115800	0.115800	0.115800	0.115800	0.115800	0.115800	0.115800	0.115800	0.115800	0.115800	0.115800	0.115800	0.115800	0.115800	0.115800	0.115800	0.115800	0.115800	0.115800	0.115800
166.000000	0.101900	0.101900	0.101900	0.101900	0.101900	0.100800	0.101900	0.101900	0.101900	0.101900	0.101900	0.101900	0.101900	0.101900	0.101900	0.101900	0.101900	0.101900	0.101900	0.101900	0.101900	0.101900	0.101900	0.101900	0.101900	0.101900	0.101900	0.101900	0.101900	0.101900	0.101900	0.101900	0.101900	0.101900	0.101900	0.101900	0.101900	0.101900	0.101900
167.000000	0.089000	0.089000	0.089000	0.089000	0.089000	0.087900	0.089000	0.089000	0.089000	0.089000	0.089000	0.089000	0.089000	0.089000	0.089000	0.089000	0.089000	0.089000	0.089000	0.089000	0.089000	0.089000	0.089000	0.089000	0.089000	0.089000	0.089000	0.089000	0.089000	0.089000	0.089000	0.089000	0.089000	0.089000	0.089000	0.089000	0.089000	0.089000	0.089000
168.000000	0.076900	0.076900	0.076900	0.076900	0.076900	0.076000	0.076900	0.076900	0.076900	0.076900	0.076900	0.076900	0.076900	0.076900	0.076900	0.076900	0.076900	0.076900	0.076900	0.076900	0.076900	0.076900	0.076900	0.076900	0.076900	0.076900	0.076900	0.076900	0.076900	0.076900	0.076900	0.076900	0.076900	0.076900	0.076900	0.076900	0.076900	0.076900	0.076900
169.000000	0.065700	0.065700	0.065700	0.065700	0.065700	0.065000	0.065700	0.065700	0.065700	0.065700	0.065700	0.065700	0.065700	0.065700	0.065700	0.065700	0.065700	0.065700	0.065700	0.065700	0.065700	0.065700	0.065700	0.065700	0.065700	0.065700	0.065700	0.065700	0.065700	0.065700	0.065700	0.065700	0.065700	0.065700	0.065700	0.065700	0.065700	0.065700	0.065700
170.000000	0.055400	0.055400	0.055400	0.055400	0.055400	0.054800	0.055400	0.055400	0.055400	0.055400	0.055400	0.055400	0.055400	0.055400	0.055400	0.055400	0.055400	0.055400	0.055400	0.055400	0.055400	0.055400	0.055400	0.055400	0.055400	0.055400	0.055400	0.055400	0.055400	0.055400	0.055400	0.055400	0.055400	0.055400	0.055400	0.055400	0.055400	0.055400	0.055400
171.000000	0.046100	0.046100	0.046100	0.046100	0.046100	0.045600	0.046100	0.046100	0.046100	0.046100	0.046100	0.046100	0.046100	0.046100	0.046100	0.046100	0.046100	0.046100	0.046100	0.046100	0.046100	0.046100	0.046100	0.046100	0.046100	0.046100	0.046100	0.046100	0.046100	0.046100	0.046100	0.046100	0.046100	0.046100	0.046100	0.046100	0.046100	0.046100	0.046100
172.000000	0.037800	0.037800	0.037800	0.037800	0.037800	0.037400	0.037800	0.037800	0.037800	0.037800	0.037800	0.037800	0.037800	0.037800	0.037800	0.037800	0.037800	0.037800	0.037800	0.037800	0.037800	0.037800	0.037800	0.037800	0.037800	0.037800	0.037800	0.037800	0.037800	0.037800	0.037800	0.037800	0.037800	0.037800	0.037800	0.037800	0.037800	0.037800	0.037800
173.000000	0.030300	0.030400	0.030400	0.030400	0.030400	0.030100	0.030400	0.030400	0.030400	0.030400	0.030400	0.030400	0.030400	0.030400	0.030400	0.030400	0.030400	0.030400	0.030400	0.030400	0.030400	0.030400	0.030400	0.030400	0.030400	0.030400	0.030400	0.030400	0.030400	0.030400	0.030400	0.030400	0.030400	0.030400	0.030400	0.030400	0.030400	0.030400	0.030400
174.000000	0.023900	0.023900	0.023900	0.023900	0.023900	0.023700	0.023900	0.023900	0.023900	0.023900	0.023900	0.023900	0.023900	0.023900	0.023900	0.023900	0.023900	0.023900	0.023900	0.023900	0.023900	0.023900	0.023900	0.023900	0.023900	0.023900	0.023900	0.023900	0.023900	0.023900	0.023900	0.023900	0.023900	0.023900	0.023900	0.023900	0.023900	0.023900	0.023900
175.000000	0.018500	0.018500	0.018500	0.018500	0.018500	0.018300	0.018500	0.018500	0.018500	0.018500	0.018500	0.018500	0.018500	0.018500	0.018500	0.018500	0.018500	0.018500	0.018500	0.018500	0.018500	0.018500	0.018500	0.018500	0.018500	0.018500	0.018500	0.018500	0.018500	0.018500	0.018500	0.018500	0.018500	0.018500	0.018500	0.018500	0.018500	0.018500	0.018500
176.000000	0.014000	0.014000	0.014000	0.014000	0.014000	0.013900	0.014000	0.014000	0.014000	0.014000	0.014000	0.014000	0.014000	0.014000	0.014000	0.014000	0.014000	0.014000	0.014000	0.014000	0.014000	0.014000	0.014000	0.014000	0.014000	0.014000	0.014000	0.014000	0.014000	0.014000	0.014000	0.014000	0.014000	0.014000	0.014000	0.014000	0.014000	0.014000	0.014000
177.000000	0.010500	0.010500	0.010500	0.010500	0.010500	0.010400	0.010500	0.010500	0.010500	0.010500	0.010500	0.010500	0.010500	0.010500	0.010500	0.010500	0.010500	0.010500	0.010500	0.010500	0.010500	0.010500	0.010500	0.010500	0.010500	0.010500	0.010500	0.010500	0.010500	0.010500	0.010500	0.010500	0.010500	0.010500	0.010500	0.010500	0.010500	0.010500	0.010500
178.000000	0.008000	0.008000	0.008000	0.008000	0.008000	0.008000	0.008000	0.008000	0.008000	0.008000	0.008000	0.008000	0.008000	0.008000	0.008000	0.008000	0.008000	0.008000	0.008000	0.008000	0.008000	0.008000	0.008000	0.008000	0.008000	0.008000	0.008000	0.008000	0.008000	0.008000	0.008000	0.008000	0.008000	0.008000	0.008000	0.008000	0.008000	0.008000	0.008000
179.000000	0.006500	0.006500	0.006500	0.006500	0.006500	0.006500	0.006500	0.006500	0.006500	0.006500	0.006500	0.006500	0.006500	0.006500	0.006500	0.006500	0.006500	0.006500	0.006500	0.006500	0.006500	0.006500	0.006500	0.006500	0.006500	0.006500	0.006500	0.006500	0.006500	0.006500	0.006500	0.006500	0.006500	0.006500	0.006500	0.006500	0.006500	0.006500	0.006500
180.000000	0.006000	0.006000	0.006000	0.006000	0.006000	0.006000	0.006000	0.006000	0.006000	0.006000	0.006000	0.006000	0.006000	0.006000	0.006000	0.006000	0.006000	0.006000	0.006000	0.006000	0.006000	0.006000	0.006000	0.006000	0.006000	0.006000	0.006000	0.006000	0.006000	0.006000	0.006000	0.006000	0.006000	0.006000	0.006000	0.006000	0.006000	0.006000	0.006000
