First column is AoA (deg) and first row is Reynolds Number
0.000000	200000.000000	300000.000000	400000.000000	500000.000000	600000.000000	700000.000000	800000.000000	900000.000000	1000000.000000	1100000.000000	1200000.000000	1300000.000000	1400000.000000	1500000.000000	1600000.000000	1700000.000000	1800000.000000	1900000.000000	2000000.000000	2100000.000000	2200000.000000	2300000.000000	2400000.000000	2500000.000000	2600000.000000	2700000.000000	2800000.000000	2900000.000000	3000000.000000	3100000.000000	3200000.000000	3300000.000000	3400000.000000	3500000.000000	3600000.000000	3700000.000000	3800000.000000	3900000.000000	4000000.000000
-180.000000	0.006000	0.006000	0.006000	0.006000	0.006000	0.006000	0.006000	0.006000	0.006000	0.006000	0.006000	0.006000	0.006000	0.006000	0.006000	0.006000	0.006000	0.006000	0.006000	0.006000	0.006000	0.006000	0.006000	0.006000	0.006000	0.006000	0.006000	0.006000	0.006000	0.006000	0.006000	0.006000	0.006000	0.006000	0.006000	0.006000	0.006000	0.006000	0.006000
-179.000000	0.006500	0.006500	0.006500	0.006500	0.006500	0.006500	0.006500	0.006500	0.006500	0.006500	0.006500	0.006500	0.006500	0.006500	0.006500	0.006500	0.006500	0.006500	0.006500	0.006500	0.006500	0.006500	0.006500	0.006500	0.006500	0.006500	0.006500	0.006500	0.006500	0.006500	0.006500	0.006500	0.006500	0.006500	0.006500	0.006500	0.006500	0.006500	0.006500
-178.000000	0.008100	0.008100	0.008100	0.008100	0.008100	0.008100	0.008100	0.008100	0.008100	0.008100	0.008100	0.008100	0.008100	0.008100	0.008100	0.008100	0.008100	0.008100	0.008100	0.008100	0.008100	0.008100	0.008100	0.008100	0.008100	0.008100	0.008100	0.008100	0.008100	0.008100	0.008100	0.008100	0.008100	0.008100	0.008100	0.008100	0.008100	0.008100	0.008100
-177.000000	0.010600	0.010600	0.010600	0.010600	0.010600	0.010600	0.010600	0.010600	0.010600	0.010600	0.010600	0.010600	0.010600	0.010600	0.010600	0.010600	0.010600	0.010600	0.010600	0.010600	0.010600	0.010600	0.010600	0.010600	0.010600	0.010600	0.010600	0.010600	0.010600	0.010600	0.010600	0.010600	0.010600	0.010600	0.010600	0.010600	0.010600	0.010600	0.010600
-176.000000	0.014300	0.014300	0.014300	0.014300	0.014300	0.014300	0.014300	0.014300	0.014300	0.014300	0.014300	0.014300	0.014300	0.014300	0.014300	0.014300	0.014300	0.014300	0.014300	0.014300	0.014300	0.014300	0.014300	0.014300	0.014300	0.014300	0.014300	0.014300	0.014300	0.014300	0.014300	0.014300	0.014300	0.014300	0.014300	0.014300	0.014300	0.014300	0.014300
-175.000000	0.018900	0.018900	0.018900	0.018900	0.018900	0.018900	0.018900	0.018900	0.018900	0.018900	0.018900	0.018900	0.018900	0.018900	0.018900	0.018900	0.018900	0.018900	0.018900	0.018900	0.018900	0.018900	0.018900	0.018900	0.018900	0.018900	0.018900	0.018900	0.018900	0.018900	0.018900	0.018900	0.018900	0.018900	0.018900	0.018900	0.018900	0.018900	0.018900
-174.000000	0.024500	0.024500	0.024500	0.024500	0.024500	0.024500	0.024500	0.024500	0.024500	0.024500	0.024500	0.024500	0.024500	0.024500	0.024500	0.024500	0.024500	0.024500	0.024500	0.024500	0.024500	0.024500	0.024500	0.024500	0.024500	0.024500	0.024500	0.024500	0.024500	0.024500	0.024500	0.024500	0.024500	0.024500	0.024500	0.024500	0.024500	0.024500	0.024500
-173.000000	0.031200	0.031200	0.031200	0.031200	0.031200	0.031200	0.031200	0.031200	0.031200	0.031200	0.031200	0.031200	0.031200	0.031200	0.031200	0.031200	0.031200	0.031200	0.031200	0.031200	0.031200	0.031200	0.031200	0.031200	0.031200	0.031200	0.031200	0.031200	0.031200	0.031200	0.031200	0.031200	0.031200	0.031200	0.031200	0.031200	0.031200	0.031200	0.031200
-172.000000	0.038800	0.038800	0.038800	0.038800	0.038800	0.038800	0.038800	0.038800	0.038800	0.038800	0.038800	0.038800	0.038800	0.038800	0.038800	0.038800	0.038800	0.038800	0.038800	0.038800	0.038800	0.038800	0.038800	0.038800	0.038800	0.038800	0.038800	0.038800	0.038800	0.038800	0.038800	0.038800	0.038800	0.038800	0.038800	0.038800	0.038800	0.038800	0.038800
-171.000000	0.047500	0.047500	0.047500	0.047500	0.047500	0.047500	0.047500	0.047500	0.047500	0.047500	0.047500	0.047500	0.047500	0.047500	0.047500	0.047500	0.047500	0.047500	0.047500	0.047500	0.047500	0.047500	0.047500	0.047500	0.047500	0.047500	0.047500	0.047500	0.047500	0.047500	0.047500	0.047500	0.047500	0.047500	0.047500	0.047500	0.047500	0.047500	0.047500
-170.000000	0.057100	0.057100	0.057100	0.057100	0.057100	0.057100	0.057100	0.057100	0.057100	0.057100	0.057100	0.057100	0.057100	0.057100	0.057100	0.057100	0.057100	0.057100	0.057100	0.057100	0.057100	0.057100	0.057100	0.057100	0.057100	0.057100	0.057100	0.057100	0.057100	0.057100	0.057100	0.057100	0.057100	0.057100	0.057100	0.057100	0.057100	0.057100	0.057100
-169.000000	0.067700	0.067700	0.067700	0.067700	0.067700	0.067700	0.067700	0.067700	0.067700	0.067700	0.067700	0.067700	0.067700	0.067700	0.067700	0.067700	0.067700	0.067700	0.067700	0.067700	0.067700	0.067700	0.067700	0.067700	0.067700	0.067700	0.067700	0.067700	0.067700	0.067700	0.067700	0.067700	0.067700	0.067700	0.067700	0.067700	0.067700	0.067700	0.067700
-168.000000	0.079200	0.079200	0.079200	0.079200	0.079200	0.079200	0.079200	0.079200	0.079200	0.079200	0.079200	0.079200	0.079200	0.079200	0.079200	0.079200	0.079200	0.079200	0.079200	0.079200	0.079200	0.079200	0.079200	0.079200	0.079200	0.079200	0.079200	0.079200	0.079200	0.079200	0.079200	0.079200	0.079200	0.079200	0.079200	0.079200	0.079200	0.079200	0.079200
-167.000000	0.091700	0.091700	0.091700	0.091700	0.091700	0.091700	0.091700	0.091700	0.091700	0.091700	0.091700	0.091700	0.091700	0.091700	0.091700	0.091700	0.091700	0.091700	0.091700	0.091700	0.091700	0.091700	0.091700	0.091700	0.091700	0.091700	0.091700	0.091700	0.091700	0.091700	0.091700	0.091700	0.091700	0.091700	0.091700	0.091700	0.091700	0.091700	0.091700
-166.000000	0.105100	0.105100	0.105100	0.105100	0.105100	0.105100	0.105100	0.105100	0.105100	0.105100	0.105100	0.105100	0.105100	0.105100	0.105100	0.105100	0.105100	0.105100	0.105100	0.105100	0.105100	0.105100	0.105100	0.105100	0.105100	0.105100	0.105100	0.105100	0.105100	0.105100	0.105100	0.105100	0.105100	0.105100	0.105100	0.105100	0.105100	0.105100	0.105100
-165.000000	0.119500	0.119500	0.119500	0.119500	0.119500	0.119500	0.119500	0.119500	0.119500	0.119500	0.119500	0.119500	0.119500	0.119500	0.119500	0.119500	0.119500	0.119500	0.119500	0.119500	0.119500	0.119500	0.119500	0.119500	0.119500	0.119500	0.119500	0.119500	0.119500	0.119500	0.119500	0.119500	0.119500	0.119500	0.119500	0.119500	0.119500	0.119500	0.119500
-164.000000	0.134700	0.134700	0.134700	0.134700	0.134700	0.134700	0.134700	0.134700	0.134700	0.134700	0.134700	0.134700	0.134700	0.134700	0.134700	0.134700	0.134700	0.134700	0.134700	0.134700	0.134700	0.134700	0.134700	0.134700	0.134700	0.134700	0.134700	0.134700	0.134700	0.134700	0.134700	0.134700	0.134700	0.134700	0.134700	0.134700	0.134700	0.134700	0.134700
-163.000000	0.150700	0.150700	0.150700	0.150700	0.150700	0.150700	0.150700	0.150700	0.150700	0.150700	0.150700	0.150700	0.150700	0.150700	0.150700	0.150700	0.150700	0.150700	0.150700	0.150700	0.150700	0.150700	0.150700	0.150700	0.150700	0.150700	0.150700	0.150700	0.150700	0.150700	0.150700	0.150700	0.150700	0.150700	0.150700	0.150700	0.150700	0.150700	0.150700
-162.000000	0.167700	0.167700	0.167700	0.167700	0.167700	0.167700	0.167700	0.167700	0.167700	0.167700	0.167700	0.167700	0.167700	0.167700	0.167700	0.167700	0.167700	0.167700	0.167700	0.167700	0.167700	0.167700	0.167700	0.167700	0.167700	0.167700	0.167700	0.167700	0.167700	0.167700	0.167700	0.167700	0.167700	0.167700	0.167700	0.167700	0.167700	0.167700	0.167700
-161.000000	0.185400	0.185400	0.185400	0.185400	0.185400	0.185400	0.185400	0.185400	0.185400	0.185400	0.185400	0.185400	0.185400	0.185400	0.185400	0.185400	0.185400	0.185400	0.185400	0.185400	0.185400	0.185400	0.185400	0.185400	0.185400	0.185400	0.185400	0.185400	0.185400	0.185400	0.185400	0.185400	0.185400	0.185400	0.185400	0.185400	0.185400	0.185400	0.185400
-160.000000	0.204000	0.204000	0.204000	0.204000	0.204000	0.204000	0.204000	0.204000	0.204000	0.204000	0.204000	0.204000	0.204000	0.204000	0.204000	0.204000	0.204000	0.204000	0.204000	0.204000	0.204000	0.204000	0.204000	0.204000	0.204000	0.204000	0.204000	0.204000	0.204000	0.204000	0.204000	0.204000	0.204000	0.204000	0.204000	0.204000	0.204000	0.204000	0.204000
-159.000000	0.223300	0.223300	0.223300	0.223300	0.223300	0.223300	0.223300	0.223300	0.223300	0.223300	0.223300	0.223300	0.223300	0.223300	0.223300	0.223300	0.223300	0.223300	0.223300	0.223300	0.223300	0.223300	0.223300	0.223300	0.223300	0.223300	0.223300	0.223300	0.223300	0.223300	0.223300	0.223300	0.223300	0.223300	0.223300	0.223300	0.223300	0.223300	0.223300
-158.000000	0.243400	0.243400	0.243400	0.243400	0.243400	0.243400	0.243400	0.243400	0.243400	0.243400	0.243400	0.243400	0.243400	0.243400	0.243400	0.243400	0.243400	0.243400	0.243400	0.243400	0.243400	0.243400	0.243400	0.243400	0.243400	0.243400	0.243400	0.243400	0.243400	0.243400	0.243400	0.243400	0.243400	0.243400	0.243400	0.243400	0.243400	0.243400	0.243400
-157.000000	0.264200	0.264200	0.264200	0.264200	0.264200	0.264200	0.264200	0.264200	0.264200	0.264200	0.264200	0.264200	0.264200	0.264200	0.264200	0.264200	0.264200	0.264200	0.264200	0.264200	0.264200	0.264200	0.264200	0.264200	0.264200	0.264200	0.264200	0.264200	0.264200	0.264200	0.264200	0.264200	0.264200	0.264200	0.264200	0.264200	0.264200	0.264200	0.264200
-156.000000	0.285800	0.285800	0.285800	0.285800	0.285800	0.285800	0.285800	0.285800	0.285800	0.285800	0.285800	0.285800	0.285800	0.285800	0.285800	0.285800	0.285800	0.285800	0.285800	0.285800	0.285800	0.285800	0.285800	0.285800	0.285800	0.285800	0.285800	0.285800	0.285800	0.285800	0.285800	0.285800	0.285800	0.285800	0.285800	0.285800	0.285800	0.285800	0.285800
-155.000000	0.308000	0.308000	0.308000	0.308000	0.308000	0.308000	0.308000	0.308000	0.308000	0.308000	0.308000	0.308000	0.308000	0.308000	0.308000	0.308000	0.308000	0.308000	0.308000	0.308000	0.308000	0.308000	0.308000	0.308000	0.308000	0.308000	0.308000	0.308000	0.308000	0.308000	0.308000	0.308000	0.308000	0.308000	0.308000	0.308000	0.308000	0.308000	0.308000
-154.000000	0.330900	0.330900	0.330900	0.330900	0.330900	0.330900	0.330900	0.330900	0.330900	0.330900	0.330900	0.330900	0.330900	0.330900	0.330900	0.330900	0.330900	0.330900	0.330900	0.330900	0.330900	0.330900	0.330900	0.330900	0.330900	0.330900	0.330900	0.330900	0.330900	0.330900	0.330900	0.330900	0.330900	0.330900	0.330900	0.330900	0.330900	0.330900	0.330900
-153.000000	0.354400	0.354400	0.354400	0.354400	0.354400	0.354400	0.354400	0.354400	0.354400	0.354400	0.354400	0.354400	0.354400	0.354400	0.354400	0.354400	0.354400	0.354400	0.354400	0.354400	0.354400	0.354400	0.354400	0.354400	0.354400	0.354400	0.354400	0.354400	0.354400	0.354400	0.354400	0.354400	0.354400	0.354400	0.354400	0.354400	0.354400	0.354400	0.354400
-152.000000	0.378500	0.378500	0.378500	0.378500	0.378500	0.378500	0.378500	0.378500	0.378500	0.378500	0.378500	0.378500	0.378500	0.378500	0.378500	0.378500	0.378500	0.378500	0.378500	0.378500	0.378500	0.378500	0.378500	0.378500	0.378500	0.378500	0.378500	0.378500	0.378500	0.378500	0.378500	0.378500	0.378500	0.378500	0.378500	0.378500	0.378500	0.378500	0.378500
-151.000000	0.403200	0.403200	0.403200	0.403200	0.403200	0.403200	0.403200	0.403200	0.403200	0.403200	0.403200	0.403200	0.403200	0.403200	0.403200	0.403200	0.403200	0.403200	0.403200	0.403200	0.403200	0.403200	0.403200	0.403200	0.403200	0.403200	0.403200	0.403200	0.403200	0.403200	0.403200	0.403200	0.403200	0.403200	0.403200	0.403200	0.403200	0.403200	0.403200
-150.000000	0.428400	0.428400	0.428400	0.428400	0.428400	0.428400	0.428400	0.428400	0.428400	0.428400	0.428400	0.428400	0.428400	0.428400	0.428400	0.428400	0.428400	0.428400	0.428400	0.428400	0.428400	0.428400	0.428400	0.428400	0.428400	0.428400	0.428400	0.428400	0.428400	0.428400	0.428400	0.428400	0.428400	0.428400	0.428400	0.428400	0.428400	0.428400	0.428400
-149.000000	0.454200	0.454200	0.454200	0.454200	0.454200	0.454200	0.454200	0.454200	0.454200	0.454200	0.454200	0.454200	0.454200	0.454200	0.454200	0.454200	0.454200	0.454200	0.454200	0.454200	0.454200	0.454200	0.454200	0.454200	0.454200	0.454200	0.454200	0.454200	0.454200	0.454200	0.454200	0.454200	0.454200	0.454200	0.454200	0.454200	0.454200	0.454200	0.454200
-148.000000	0.480400	0.480400	0.480400	0.480400	0.480400	0.480400	0.480400	0.480400	0.480400	0.480400	0.480400	0.480400	0.480400	0.480400	0.480400	0.480400	0.480400	0.480400	0.480400	0.480400	0.480400	0.480400	0.480400	0.480400	0.480400	0.480400	0.480400	0.480400	0.480400	0.480400	0.480400	0.480400	0.480400	0.480400	0.480400	0.480400	0.480400	0.480400	0.480400
-147.000000	0.507000	0.507000	0.507000	0.507000	0.507000	0.507000	0.507000	0.507000	0.507000	0.507000	0.507000	0.507000	0.507000	0.507000	0.507000	0.507000	0.507000	0.507000	0.507000	0.507000	0.507000	0.507000	0.507000	0.507000	0.507000	0.507000	0.507000	0.507000	0.507000	0.507000	0.507000	0.507000	0.507000	0.507000	0.507000	0.507000	0.507000	0.507000	0.507000
-146.000000	0.534100	0.534100	0.534100	0.534100	0.534100	0.534100	0.534100	0.534100	0.534100	0.534100	0.534100	0.534100	0.534100	0.534100	0.534100	0.534100	0.534100	0.534100	0.534100	0.534100	0.534100	0.534100	0.534100	0.534100	0.534100	0.534100	0.534100	0.534100	0.534100	0.534100	0.534100	0.534100	0.534100	0.534100	0.534100	0.534100	0.534100	0.534100	0.534100
-145.000000	0.561500	0.561500	0.561500	0.561500	0.561500	0.561500	0.561500	0.561500	0.561500	0.561500	0.561500	0.561500	0.561500	0.561500	0.561500	0.561500	0.561500	0.561500	0.561500	0.561500	0.561500	0.561500	0.561500	0.561500	0.561500	0.561500	0.561500	0.561500	0.561500	0.561500	0.561500	0.561500	0.561500	0.561500	0.561500	0.561500	0.561500	0.561500	0.561500
-144.000000	0.589300	0.589300	0.589300	0.589300	0.589300	0.589300	0.589300	0.589300	0.589300	0.589300	0.589300	0.589300	0.589300	0.589300	0.589300	0.589300	0.589300	0.589300	0.589300	0.589300	0.589300	0.589300	0.589300	0.589300	0.589300	0.589300	0.589300	0.589300	0.589300	0.589300	0.589300	0.589300	0.589300	0.589300	0.589300	0.589300	0.589300	0.589300	0.589300
-143.000000	0.617400	0.617400	0.617400	0.617400	0.617400	0.617400	0.617400	0.617400	0.617400	0.617400	0.617400	0.617400	0.617400	0.617400	0.617400	0.617400	0.617400	0.617400	0.617400	0.617400	0.617400	0.617400	0.617400	0.617400	0.617400	0.617400	0.617400	0.617400	0.617400	0.617400	0.617400	0.617400	0.617400	0.617400	0.617400	0.617400	0.617400	0.617400	0.617400
-142.000000	0.645800	0.645800	0.645800	0.645800	0.645800	0.645800	0.645800	0.645800	0.645800	0.645800	0.645800	0.645800	0.645800	0.645800	0.645800	0.645800	0.645800	0.645800	0.645800	0.645800	0.645800	0.645800	0.645800	0.645800	0.645800	0.645800	0.645800	0.645800	0.645800	0.645800	0.645800	0.645800	0.645800	0.645800	0.645800	0.645800	0.645800	0.645800	0.645800
-141.000000	0.674400	0.674400	0.674400	0.674400	0.674400	0.674400	0.674400	0.674400	0.674400	0.674400	0.674400	0.674400	0.674400	0.674400	0.674400	0.674400	0.674400	0.674400	0.674400	0.674400	0.674400	0.674400	0.674400	0.674400	0.674400	0.674400	0.674400	0.674400	0.674400	0.674400	0.674400	0.674400	0.674400	0.674400	0.674400	0.674400	0.674400	0.674400	0.674400
-140.000000	0.703200	0.703200	0.703200	0.703200	0.703200	0.703200	0.703200	0.703200	0.703200	0.703200	0.703200	0.703200	0.703200	0.703200	0.703200	0.703200	0.703200	0.703200	0.703200	0.703200	0.703200	0.703200	0.703200	0.703200	0.703200	0.703200	0.703200	0.703200	0.703200	0.703200	0.703200	0.703200	0.703200	0.703200	0.703200	0.703200	0.703200	0.703200	0.703200
-139.000000	0.732200	0.732200	0.732200	0.732200	0.732200	0.732200	0.732200	0.732200	0.732200	0.732200	0.732200	0.732200	0.732200	0.732200	0.732200	0.732200	0.732200	0.732200	0.732200	0.732200	0.732200	0.732200	0.732200	0.732200	0.732200	0.732200	0.732200	0.732200	0.732200	0.732200	0.732200	0.732200	0.732200	0.732200	0.732200	0.732200	0.732200	0.732200	0.732200
-138.000000	0.761300	0.761300	0.761300	0.761300	0.761300	0.761300	0.761300	0.761300	0.761300	0.761300	0.761300	0.761300	0.761300	0.761300	0.761300	0.761300	0.761300	0.761300	0.761300	0.761300	0.761300	0.761300	0.761300	0.761300	0.761300	0.761300	0.761300	0.761300	0.761300	0.761300	0.761300	0.761300	0.761300	0.761300	0.761300	0.761300	0.761300	0.761300	0.761300
-137.000000	0.790600	0.790600	0.790600	0.790600	0.790600	0.790600	0.790600	0.790600	0.790600	0.790600	0.790600	0.790600	0.790600	0.790600	0.790600	0.790600	0.790600	0.790600	0.790600	0.790600	0.790600	0.790600	0.790600	0.790600	0.790600	0.790600	0.790600	0.790600	0.790600	0.790600	0.790600	0.790600	0.790600	0.790600	0.790600	0.790600	0.790600	0.790600	0.790600
-136.000000	0.819900	0.819900	0.819900	0.819900	0.819900	0.819900	0.819900	0.819900	0.819900	0.819900	0.819900	0.819900	0.819900	0.819900	0.819900	0.819900	0.819900	0.819900	0.819900	0.819900	0.819900	0.819900	0.819900	0.819900	0.819900	0.819900	0.819900	0.819900	0.819900	0.819900	0.819900	0.819900	0.819900	0.819900	0.819900	0.819900	0.819900	0.819900	0.819900
-135.000000	0.849200	0.849200	0.849200	0.849200	0.849200	0.849200	0.849200	0.849200	0.849200	0.849200	0.849200	0.849200	0.849200	0.849200	0.849200	0.849200	0.849200	0.849200	0.849200	0.849200	0.849200	0.849200	0.849200	0.849200	0.849200	0.849200	0.849200	0.849200	0.849200	0.849200	0.849200	0.849200	0.849200	0.849200	0.849200	0.849200	0.849200	0.849200	0.849200
-134.000000	0.878500	0.878500	0.878500	0.878500	0.878500	0.878500	0.878500	0.878500	0.878500	0.878500	0.878500	0.878500	0.878500	0.878500	0.878500	0.878500	0.878500	0.878500	0.878500	0.878500	0.878500	0.878500	0.878500	0.878500	0.878500	0.878500	0.878500	0.878500	0.878500	0.878500	0.878500	0.878500	0.878500	0.878500	0.878500	0.878500	0.878500	0.878500	0.878500
-133.000000	0.907800	0.907800	0.907800	0.907800	0.907800	0.907800	0.907800	0.907800	0.907800	0.907800	0.907800	0.907800	0.907800	0.907800	0.907800	0.907800	0.907800	0.907800	0.907800	0.907800	0.907800	0.907800	0.907800	0.907800	0.907800	0.907800	0.907800	0.907800	0.907800	0.907800	0.907800	0.907800	0.907800	0.907800	0.907800	0.907800	0.907800	0.907800	0.907800
-132.000000	0.937000	0.937000	0.937000	0.937000	0.937000	0.937000	0.937000	0.937000	0.937000	0.937000	0.937000	0.937000	0.937000	0.937000	0.937000	0.937000	0.937000	0.937000	0.937000	0.937000	0.937000	0.937000	0.937000	0.937000	0.937000	0.937000	0.937000	0.937000	0.937000	0.937000	0.937000	0.937000	0.937000	0.937000	0.937000	0.937000	0.937000	0.937000	0.937000
-131.000000	0.966100	0.966100	0.966100	0.966100	0.966100	0.966100	0.966100	0.966100	0.966100	0.966100	0.966100	0.966100	0.966100	0.966100	0.966100	0.966100	0.966100	0.966100	0.966100	0.966100	0.966100	0.966100	0.966100	0.966100	0.966100	0.966100	0.966100	0.966100	0.966100	0.966100	0.966100	0.966100	0.966100	0.966100	0.966100	0.966100	0.966100	0.966100	0.966100
-130.000000	0.995100	0.995100	0.995100	0.995100	0.995100	0.995100	0.995100	0.995100	0.995100	0.995100	0.995100	0.995100	0.995100	0.995100	0.995100	0.995100	0.995100	0.995100	0.995100	0.995100	0.995100	0.995100	0.995100	0.995100	0.995100	0.995100	0.995100	0.995100	0.995100	0.995100	0.995100	0.995100	0.995100	0.995100	0.995100	0.995100	0.995100	0.995100	0.995100
-129.000000	1.023800	1.023800	1.023800	1.023800	1.023800	1.023800	1.023800	1.023800	1.023800	1.023800	1.023800	1.023800	1.023800	1.023800	1.023800	1.023800	1.023800	1.023800	1.023800	1.023800	1.023800	1.023800	1.023800	1.023800	1.023800	1.023800	1.023800	1.023800	1.023800	1.023800	1.023800	1.023800	1.023800	1.023800	1.023800	1.023800	1.023800	1.023800	1.023800
-128.000000	1.052400	1.052400	1.052400	1.052400	1.052400	1.052400	1.052400	1.052400	1.052400	1.052400	1.052400	1.052400	1.052400	1.052400	1.052400	1.052400	1.052400	1.052400	1.052400	1.052400	1.052400	1.052400	1.052400	1.052400	1.052400	1.052400	1.052400	1.052400	1.052400	1.052400	1.052400	1.052400	1.052400	1.052400	1.052400	1.052400	1.052400	1.052400	1.052400
-127.000000	1.080700	1.080700	1.080700	1.080700	1.080700	1.080700	1.080700	1.080700	1.080700	1.080700	1.080700	1.080700	1.080700	1.080700	1.080700	1.080700	1.080700	1.080700	1.080700	1.080700	1.080700	1.080700	1.080700	1.080700	1.080700	1.080700	1.080700	1.080700	1.080700	1.080700	1.080700	1.080700	1.080700	1.080700	1.080700	1.080700	1.080700	1.080700	1.080700
-126.000000	1.108700	1.108700	1.108700	1.108700	1.108700	1.108700	1.108700	1.108700	1.108700	1.108700	1.108700	1.108700	1.108700	1.108700	1.108700	1.108700	1.108700	1.108700	1.108700	1.108700	1.108700	1.108700	1.108700	1.108700	1.108700	1.108700	1.108700	1.108700	1.108700	1.108700	1.108700	1.108700	1.108700	1.108700	1.108700	1.108700	1.108700	1.108700	1.108700
-125.000000	1.136400	1.136400	1.136400	1.136400	1.136400	1.136400	1.136400	1.136400	1.136400	1.136400	1.136400	1.136400	1.136400	1.136400	1.136400	1.136400	1.136400	1.136400	1.136400	1.136400	1.136400	1.136400	1.136400	1.136400	1.136400	1.136400	1.136400	1.136400	1.136400	1.136400	1.136400	1.136400	1.136400	1.136400	1.136400	1.136400	1.136400	1.136400	1.136400
-124.000000	1.163700	1.163700	1.163700	1.163700	1.163700	1.163700	1.163700	1.163700	1.163700	1.163700	1.163700	1.163700	1.163700	1.163700	1.163700	1.163700	1.163700	1.163700	1.163700	1.163700	1.163700	1.163700	1.163700	1.163700	1.163700	1.163700	1.163700	1.163700	1.163700	1.163700	1.163700	1.163700	1.163700	1.163700	1.163700	1.163700	1.163700	1.163700	1.163700
-123.000000	1.190700	1.190700	1.190700	1.190700	1.190700	1.190700	1.190700	1.190700	1.190700	1.190700	1.190700	1.190700	1.190700	1.190700	1.190700	1.190700	1.190700	1.190700	1.190700	1.190700	1.190700	1.190700	1.190700	1.190700	1.190700	1.190700	1.190700	1.190700	1.190700	1.190700	1.190700	1.190700	1.190700	1.190700	1.190700	1.190700	1.190700	1.190700	1.190700
-122.000000	1.217200	1.217200	1.217200	1.217200	1.217200	1.217200	1.217200	1.217200	1.217200	1.217200	1.217200	1.217200	1.217200	1.217200	1.217200	1.217200	1.217200	1.217200	1.217200	1.217200	1.217200	1.217200	1.217200	1.217200	1.217200	1.217200	1.217200	1.217200	1.217200	1.217200	1.217200	1.217200	1.217200	1.217200	1.217200	1.217200	1.217200	1.217200	1.217200
-121.000000	1.243300	1.243300	1.243300	1.243300	1.243300	1.243300	1.243300	1.243300	1.243300	1.243300	1.243300	1.243300	1.243300	1.243300	1.243300	1.243300	1.243300	1.243300	1.243300	1.243300	1.243300	1.243300	1.243300	1.243300	1.243300	1.243300	1.243300	1.243300	1.243300	1.243300	1.243300	1.243300	1.243300	1.243300	1.243300	1.243300	1.243300	1.243300	1.243300
-120.000000	1.268900	1.268900	1.268900	1.268900	1.268900	1.268900	1.268900	1.268900	1.268900	1.268900	1.268900	1.268900	1.268900	1.268900	1.268900	1.268900	1.268900	1.268900	1.268900	1.268900	1.268900	1.268900	1.268900	1.268900	1.268900	1.268900	1.268900	1.268900	1.268900	1.268900	1.268900	1.268900	1.268900	1.268900	1.268900	1.268900	1.268900	1.268900	1.268900
-119.000000	1.294000	1.294000	1.294000	1.294000	1.294000	1.294000	1.294000	1.294000	1.294000	1.294000	1.294000	1.294000	1.294000	1.294000	1.294000	1.294000	1.294000	1.294000	1.294000	1.294000	1.294000	1.294000	1.294000	1.294000	1.294000	1.294000	1.294000	1.294000	1.294000	1.294000	1.294000	1.294000	1.294000	1.294000	1.294000	1.294000	1.294000	1.294000	1.294000
-118.000000	1.318500	1.318500	1.318500	1.318500	1.318500	1.318500	1.318500	1.318500	1.318500	1.318500	1.318500	1.318500	1.318500	1.318500	1.318500	1.318500	1.318500	1.318500	1.318500	1.318500	1.318500	1.318500	1.318500	1.318500	1.318500	1.318500	1.318500	1.318500	1.318500	1.318500	1.318500	1.318500	1.318500	1.318500	1.318500	1.318500	1.318500	1.318500	1.318500
-117.000000	1.342500	1.342500	1.342500	1.342500	1.342500	1.342500	1.342500	1.342500	1.342500	1.342500	1.342500	1.342500	1.342500	1.342500	1.342500	1.342500	1.342500	1.342500	1.342500	1.342500	1.342500	1.342500	1.342500	1.342500	1.342500	1.342500	1.342500	1.342500	1.342500	1.342500	1.342500	1.342500	1.342500	1.342500	1.342500	1.342500	1.342500	1.342500	1.342500
-116.000000	1.365800	1.365800	1.365800	1.365800	1.365800	1.365800	1.365800	1.365800	1.365800	1.365800	1.365800	1.365800	1.365800	1.365800	1.365800	1.365800	1.365800	1.365800	1.365800	1.365800	1.365800	1.365800	1.365800	1.365800	1.365800	1.365800	1.365800	1.365800	1.365800	1.365800	1.365800	1.365800	1.365800	1.365800	1.365800	1.365800	1.365800	1.365800	1.365800
-115.000000	1.388600	1.388600	1.388600	1.388600	1.388600	1.388600	1.388600	1.388600	1.388600	1.388600	1.388600	1.388600	1.388600	1.388600	1.388600	1.388600	1.388600	1.388600	1.388600	1.388600	1.388600	1.388600	1.388600	1.388600	1.388600	1.388600	1.388600	1.388600	1.388600	1.388600	1.388600	1.388600	1.388600	1.388600	1.388600	1.388600	1.388600	1.388600	1.388600
-114.000000	1.410600	1.410600	1.410600	1.410600	1.410600	1.410600	1.410600	1.410600	1.410600	1.410600	1.410600	1.410600	1.410600	1.410600	1.410600	1.410600	1.410600	1.410600	1.410600	1.410600	1.410600	1.410600	1.410600	1.410600	1.410600	1.410600	1.410600	1.410600	1.410600	1.410600	1.410600	1.410600	1.410600	1.410600	1.410600	1.410600	1.410600	1.410600	1.410600
-113.000000	1.432000	1.432000	1.432000	1.432000	1.432000	1.432000	1.432000	1.432000	1.432000	1.432000	1.432000	1.432000	1.432000	1.432000	1.432000	1.432000	1.432000	1.432000	1.432000	1.432000	1.432000	1.432000	1.432000	1.432000	1.432000	1.432000	1.432000	1.432000	1.432000	1.432000	1.432000	1.432000	1.432000	1.432000	1.432000	1.432000	1.432000	1.432000	1.432000
-112.000000	1.452700	1.452700	1.452700	1.452700	1.452700	1.452700	1.452700	1.452700	1.452700	1.452700	1.452700	1.452700	1.452700	1.452700	1.452700	1.452700	1.452700	1.452700	1.452700	1.452700	1.452700	1.452700	1.452700	1.452700	1.452700	1.452700	1.452700	1.452700	1.452700	1.452700	1.452700	1.452700	1.452700	1.452700	1.452700	1.452700	1.452700	1.452700	1.452700
-111.000000	1.472600	1.472600	1.472600	1.472600	1.472600	1.472600	1.472600	1.472600	1.472600	1.472600	1.472600	1.472600	1.472600	1.472600	1.472600	1.472600	1.472600	1.472600	1.472600	1.472600	1.472600	1.472600	1.472600	1.472600	1.472600	1.472600	1.472600	1.472600	1.472600	1.472600	1.472600	1.472600	1.472600	1.472600	1.472600	1.472600	1.472600	1.472600	1.472600
-110.000000	1.491800	1.491800	1.491800	1.491800	1.491800	1.491800	1.491800	1.491800	1.491800	1.491800	1.491800	1.491800	1.491800	1.491800	1.491800	1.491800	1.491800	1.491800	1.491800	1.491800	1.491800	1.491800	1.491800	1.491800	1.491800	1.491800	1.491800	1.491800	1.491800	1.491800	1.491800	1.491800	1.491800	1.491800	1.491800	1.491800	1.491800	1.491800	1.491800
-109.000000	1.510200	1.510200	1.510200	1.510200	1.510200	1.510200	1.510200	1.510200	1.510200	1.510200	1.510200	1.510200	1.510200	1.510200	1.510200	1.510200	1.510200	1.510200	1.510200	1.510200	1.510200	1.510200	1.510200	1.510200	1.510200	1.510200	1.510200	1.510200	1.510200	1.510200	1.510200	1.510200	1.510200	1.510200	1.510200	1.510200	1.510200	1.510200	1.510200
-108.000000	1.527800	1.527800	1.527800	1.527800	1.527800	1.527800	1.527800	1.527800	1.527800	1.527800	1.527800	1.527800	1.527800	1.527800	1.527800	1.527800	1.527800	1.527800	1.527800	1.527800	1.527800	1.527800	1.527800	1.527800	1.527800	1.527800	1.527800	1.527800	1.527800	1.527800	1.527800	1.527800	1.527800	1.527800	1.527800	1.527800	1.527800	1.527800	1.527800
-107.000000	1.544600	1.544600	1.544600	1.544600	1.544600	1.544600	1.544600	1.544600	1.544600	1.544600	1.544600	1.544600	1.544600	1.544600	1.544600	1.544600	1.544600	1.544600	1.544600	1.544600	1.544600	1.544600	1.544600	1.544600	1.544600	1.544600	1.544600	1.544600	1.544600	1.544600	1.544600	1.544600	1.544600	1.544600	1.544600	1.544600	1.544600	1.544600	1.544600
-106.000000	1.560500	1.560500	1.560500	1.560500	1.560500	1.560500	1.560500	1.560500	1.560500	1.560500	1.560500	1.560500	1.560500	1.560500	1.560500	1.560500	1.560500	1.560500	1.560500	1.560500	1.560500	1.560500	1.560500	1.560500	1.560500	1.560500	1.560500	1.560500	1.560500	1.560500	1.560500	1.560500	1.560500	1.560500	1.560500	1.560500	1.560500	1.560500	1.560500
-105.000000	1.575500	1.575500	1.575500	1.575500	1.575500	1.575500	1.575500	1.575500	1.575500	1.575500	1.575500	1.575500	1.575500	1.575500	1.575500	1.575500	1.575500	1.575500	1.575500	1.575500	1.575500	1.575500	1.575500	1.575500	1.575500	1.575500	1.575500	1.575500	1.575500	1.575500	1.575500	1.575500	1.575500	1.575500	1.575500	1.575500	1.575500	1.575500	1.575500
-104.000000	1.589700	1.589700	1.589700	1.589700	1.589700	1.589700	1.589700	1.589700	1.589700	1.589700	1.589700	1.589700	1.589700	1.589700	1.589700	1.589700	1.589700	1.589700	1.589700	1.589700	1.589700	1.589700	1.589700	1.589700	1.589700	1.589700	1.589700	1.589700	1.589700	1.589700	1.589700	1.589700	1.589700	1.589700	1.589700	1.589700	1.589700	1.589700	1.589700
-103.000000	1.603000	1.603000	1.603000	1.603000	1.603000	1.603000	1.603000	1.603000	1.603000	1.603000	1.603000	1.603000	1.603000	1.603000	1.603000	1.603000	1.603000	1.603000	1.603000	1.603000	1.603000	1.603000	1.603000	1.603000	1.603000	1.603000	1.603000	1.603000	1.603000	1.603000	1.603000	1.603000	1.603000	1.603000	1.603000	1.603000	1.603000	1.603000	1.603000
-102.000000	1.615300	1.615300	1.615300	1.615300	1.615300	1.615300	1.615300	1.615300	1.615300	1.615300	1.615300	1.615300	1.615300	1.615300	1.615300	1.615300	1.615300	1.615300	1.615300	1.615300	1.615300	1.615300	1.615300	1.615300	1.615300	1.615300	1.615300	1.615300	1.615300	1.615300	1.615300	1.615300	1.615300	1.615300	1.615300	1.615300	1.615300	1.615300	1.615300
-101.000000	1.626700	1.626700	1.626700	1.626700	1.626700	1.626700	1.626700	1.626700	1.626700	1.626700	1.626700	1.626700	1.626700	1.626700	1.626700	1.626700	1.626700	1.626700	1.626700	1.626700	1.626700	1.626700	1.626700	1.626700	1.626700	1.626700	1.626700	1.626700	1.626700	1.626700	1.626700	1.626700	1.626700	1.626700	1.626700	1.626700	1.626700	1.626700	1.626700
-100.000000	1.637200	1.637200	1.637200	1.637200	1.637200	1.637200	1.637200	1.637200	1.637200	1.637200	1.637200	1.637200	1.637200	1.637200	1.637200	1.637200	1.637200	1.637200	1.637200	1.637200	1.637200	1.637200	1.637200	1.637200	1.637200	1.637200	1.637200	1.637200	1.637200	1.637200	1.637200	1.637200	1.637200	1.637200	1.637200	1.637200	1.637200	1.637200	1.637200
-99.000000	1.646700	1.646700	1.646700	1.646700	1.646700	1.646700	1.646700	1.646700	1.646700	1.646700	1.646700	1.646700	1.646700	1.646700	1.646700	1.646700	1.646700	1.646700	1.646700	1.646700	1.646700	1.646700	1.646700	1.646700	1.646700	1.646700	1.646700	1.646700	1.646700	1.646700	1.646700	1.646700	1.646700	1.646700	1.646700	1.646700	1.646700	1.646700	1.646700
-98.000000	1.655300	1.655300	1.655300	1.655300	1.655300	1.655300	1.655300	1.655300	1.655300	1.655300	1.655300	1.655300	1.655300	1.655300	1.655300	1.655300	1.655300	1.655300	1.655300	1.655300	1.655300	1.655300	1.655300	1.655300	1.655300	1.655300	1.655300	1.655300	1.655300	1.655300	1.655300	1.655300	1.655300	1.655300	1.655300	1.655300	1.655300	1.655300	1.655300
-97.000000	1.662800	1.662800	1.662800	1.662800	1.662800	1.662800	1.662800	1.662800	1.662800	1.662800	1.662800	1.662800	1.662800	1.662800	1.662800	1.662800	1.662800	1.662800	1.662800	1.662800	1.662800	1.662800	1.662800	1.662800	1.662800	1.662800	1.662800	1.662800	1.662800	1.662800	1.662800	1.662800	1.662800	1.662800	1.662800	1.662800	1.662800	1.662800	1.662800
-96.000000	1.669400	1.669400	1.669400	1.669400	1.669400	1.669400	1.669400	1.669400	1.669400	1.669400	1.669400	1.669400	1.669400	1.669400	1.669400	1.669400	1.669400	1.669400	1.669400	1.669400	1.669400	1.669400	1.669400	1.669400	1.669400	1.669400	1.669400	1.669400	1.669400	1.669400	1.669400	1.669400	1.669400	1.669400	1.669400	1.669400	1.669400	1.669400	1.669400
-95.000000	1.675000	1.675000	1.675000	1.675000	1.675000	1.675000	1.675000	1.675000	1.675000	1.675000	1.675000	1.675000	1.675000	1.675000	1.675000	1.675000	1.675000	1.675000	1.675000	1.675000	1.675000	1.675000	1.675000	1.675000	1.675000	1.675000	1.675000	1.675000	1.675000	1.675000	1.675000	1.675000	1.675000	1.675000	1.675000	1.675000	1.675000	1.675000	1.675000
-94.000000	1.679500	1.679500	1.679500	1.679500	1.679500	1.679500	1.679500	1.679500	1.679500	1.679500	1.679500	1.679500	1.679500	1.679500	1.679500	1.679500	1.679500	1.679500	1.679500	1.679500	1.679500	1.679500	1.679500	1.679500	1.679500	1.679500	1.679500	1.679500	1.679500	1.679500	1.679500	1.679500	1.679500	1.679500	1.679500	1.679500	1.679500	1.679500	1.679500
-93.000000	1.683100	1.683100	1.683100	1.683100	1.683100	1.683100	1.683100	1.683100	1.683100	1.683100	1.683100	1.683100	1.683100	1.683100	1.683100	1.683100	1.683100	1.683100	1.683100	1.683100	1.683100	1.683100	1.683100	1.683100	1.683100	1.683100	1.683100	1.683100	1.683100	1.683100	1.683100	1.683100	1.683100	1.683100	1.683100	1.683100	1.683100	1.683100	1.683100
-92.000000	1.685600	1.685600	1.685600	1.685600	1.685600	1.685600	1.685600	1.685600	1.685600	1.685600	1.685600	1.685600	1.685600	1.685600	1.685600	1.685600	1.685600	1.685600	1.685600	1.685600	1.685600	1.685600	1.685600	1.685600	1.685600	1.685600	1.685600	1.685600	1.685600	1.685600	1.685600	1.685600	1.685600	1.685600	1.685600	1.685600	1.685600	1.685600	1.685600
-91.000000	1.687200	1.687200	1.687200	1.687200	1.687200	1.687200	1.687200	1.687200	1.687200	1.687200	1.687200	1.687200	1.687200	1.687200	1.687200	1.687200	1.687200	1.687200	1.687200	1.687200	1.687200	1.687200	1.687200	1.687200	1.687200	1.687200	1.687200	1.687200	1.687200	1.687200	1.687200	1.687200	1.687200	1.687200	1.687200	1.687200	1.687200	1.687200	1.687200
-90.000000	1.687700	1.687700	1.687700	1.687700	1.687700	1.687700	1.687700	1.687700	1.687700	1.687700	1.687700	1.687700	1.687700	1.687700	1.687700	1.687700	1.687700	1.687700	1.687700	1.687700	1.687700	1.687700	1.687700	1.687700	1.687700	1.687700	1.687700	1.687700	1.687700	1.687700	1.687700	1.687700	1.687700	1.687700	1.687700	1.687700	1.687700	1.687700	1.687700
-89.000000	1.687200	1.687200	1.687200	1.687200	1.687200	1.687200	1.687200	1.687200	1.687200	1.687200	1.687200	1.687200	1.687200	1.687200	1.687200	1.687200	1.687200	1.687200	1.687200	1.687200	1.687200	1.687200	1.687200	1.687200	1.687200	1.687200	1.687200	1.687200	1.687200	1.687200	1.687200	1.687200	1.687200	1.687200	1.687200	1.687200	1.687200	1.687200	1.687200
-88.000000	1.685600	1.685600	1.685600	1.685600	1.685600	1.685600	1.685600	1.685600	1.685600	1.685600	1.685600	1.685600	1.685600	1.685600	1.685600	1.685600	1.685600	1.685600	1.685600	1.685600	1.685600	1.685600	1.685600	1.685600	1.685600	1.685600	1.685600	1.685600	1.685600	1.685600	1.685600	1.685600	1.685600	1.685600	1.685600	1.685600	1.685600	1.685600	1.685600
-87.000000	1.683100	1.683100	1.683100	1.683100	1.683100	1.683100	1.683100	1.683100	1.683100	1.683100	1.683100	1.683100	1.683100	1.683100	1.683100	1.683100	1.683100	1.683100	1.683100	1.683100	1.683100	1.683100	1.683100	1.683100	1.683100	1.683100	1.683100	1.683100	1.683100	1.683100	1.683100	1.683100	1.683100	1.683100	1.683100	1.683100	1.683100	1.683100	1.683100
-86.000000	1.679500	1.679500	1.679500	1.679500	1.679500	1.679500	1.679500	1.679500	1.679500	1.679500	1.679500	1.679500	1.679500	1.679500	1.679500	1.679500	1.679500	1.679500	1.679500	1.679500	1.679500	1.679500	1.679500	1.679500	1.679500	1.679500	1.679500	1.679500	1.679500	1.679500	1.679500	1.679500	1.679500	1.679500	1.679500	1.679500	1.679500	1.679500	1.679500
-85.000000	1.674900	1.674900	1.674900	1.675000	1.675000	1.675000	1.675000	1.675000	1.675000	1.675000	1.675000	1.675000	1.675000	1.675000	1.675000	1.675000	1.675000	1.675000	1.675000	1.675000	1.675000	1.675000	1.675000	1.675000	1.675000	1.675000	1.675000	1.675000	1.675000	1.675000	1.675000	1.675000	1.675000	1.675000	1.675000	1.675000	1.675000	1.675000	1.675000
-84.000000	1.669400	1.669400	1.669400	1.669400	1.669400	1.669400	1.669400	1.669400	1.669400	1.669400	1.669400	1.669400	1.669400	1.669400	1.669400	1.669400	1.669400	1.669400	1.669400	1.669400	1.669400	1.669400	1.669400	1.669400	1.669400	1.669400	1.669400	1.669400	1.669400	1.669400	1.669400	1.669400	1.669400	1.669400	1.669400	1.669400	1.669400	1.669400	1.669400
-83.000000	1.662800	1.662800	1.662800	1.662800	1.662800	1.662800	1.662800	1.662800	1.662800	1.662800	1.662800	1.662800	1.662800	1.662800	1.662800	1.662800	1.662800	1.662800	1.662800	1.662800	1.662800	1.662800	1.662800	1.662800	1.662800	1.662800	1.662800	1.662800	1.662800	1.662800	1.662800	1.662800	1.662800	1.662800	1.662800	1.662800	1.662800	1.662800	1.662800
-82.000000	1.655200	1.655200	1.655200	1.655200	1.655200	1.655200	1.655200	1.655200	1.655200	1.655200	1.655200	1.655200	1.655200	1.655200	1.655200	1.655200	1.655200	1.655200	1.655200	1.655200	1.655200	1.655200	1.655200	1.655200	1.655200	1.655200	1.655200	1.655200	1.655200	1.655200	1.655200	1.655200	1.655200	1.655200	1.655200	1.655200	1.655200	1.655200	1.655200
-81.000000	1.646700	1.646700	1.646700	1.646700	1.646700	1.646700	1.646700	1.646700	1.646700	1.646700	1.646700	1.646700	1.646700	1.646700	1.646700	1.646700	1.646700	1.646700	1.646700	1.646700	1.646700	1.646700	1.646700	1.646700	1.646700	1.646700	1.646700	1.646700	1.646700	1.646700	1.646700	1.646700	1.646700	1.646700	1.646700	1.646700	1.646700	1.646700	1.646700
-80.000000	1.637200	1.637200	1.637200	1.637200	1.637200	1.637200	1.637200	1.637200	1.637200	1.637200	1.637200	1.637200	1.637200	1.637200	1.637200	1.637200	1.637200	1.637200	1.637200	1.637200	1.637200	1.637200	1.637200	1.637200	1.637200	1.637200	1.637200	1.637200	1.637200	1.637200	1.637200	1.637200	1.637200	1.637200	1.637200	1.637200	1.637200	1.637200	1.637200
-79.000000	1.626700	1.626700	1.626700	1.626700	1.626700	1.626700	1.626700	1.626700	1.626700	1.626700	1.626700	1.626700	1.626700	1.626700	1.626700	1.626700	1.626700	1.626700	1.626700	1.626700	1.626700	1.626700	1.626700	1.626700	1.626700	1.626700	1.626700	1.626700	1.626700	1.626700	1.626700	1.626700	1.626700	1.626700	1.626700	1.626700	1.626700	1.626700	1.626700
-78.000000	1.615300	1.615300	1.615300	1.615300	1.615300	1.615300	1.615300	1.615300	1.615300	1.615300	1.615300	1.615300	1.615300	1.615300	1.615300	1.615300	1.615300	1.615300	1.615300	1.615300	1.615300	1.615300	1.615300	1.615300	1.615300	1.615300	1.615300	1.615300	1.615300	1.615300	1.615300	1.615300	1.615300	1.615300	1.615300	1.615300	1.615300	1.615300	1.615300
-77.000000	1.602900	1.602900	1.602900	1.602900	1.602900	1.602900	1.602900	1.602900	1.602900	1.602900	1.602900	1.602900	1.602900	1.602900	1.602900	1.602900	1.602900	1.602900	1.602900	1.602900	1.602900	1.602900	1.602900	1.602900	1.602900	1.602900	1.602900	1.602900	1.602900	1.602900	1.602900	1.602900	1.602900	1.602900	1.602900	1.602900	1.602900	1.602900	1.602900
-76.000000	1.589700	1.589700	1.589700	1.589700	1.589700	1.589700	1.589700	1.589700	1.589700	1.589700	1.589700	1.589700	1.589700	1.589700	1.589700	1.589700	1.589700	1.589700	1.589700	1.589700	1.589700	1.589700	1.589700	1.589700	1.589700	1.589700	1.589700	1.589700	1.589700	1.589700	1.589700	1.589700	1.589700	1.589700	1.589700	1.589700	1.589700	1.589700	1.589700
-75.000000	1.575500	1.575500	1.575500	1.575500	1.575500	1.575500	1.575500	1.575500	1.575500	1.575500	1.575500	1.575500	1.575500	1.575500	1.575500	1.575500	1.575500	1.575500	1.575500	1.575500	1.575500	1.575500	1.575500	1.575500	1.575500	1.575500	1.575500	1.575500	1.575500	1.575500	1.575500	1.575500	1.575500	1.575500	1.575500	1.575500	1.575500	1.575500	1.575500
-74.000000	1.560400	1.560400	1.560400	1.560400	1.560400	1.560400	1.560400	1.560400	1.560400	1.560400	1.560400	1.560400	1.560400	1.560400	1.560400	1.560400	1.560400	1.560400	1.560400	1.560400	1.560500	1.560500	1.560500	1.560500	1.560500	1.560500	1.560500	1.560500	1.560500	1.560500	1.560500	1.560500	1.560500	1.560500	1.560500	1.560500	1.560500	1.560500	1.560500
-73.000000	1.544500	1.544500	1.544500	1.544500	1.544500	1.544500	1.544500	1.544500	1.544500	1.544500	1.544500	1.544500	1.544500	1.544500	1.544500	1.544500	1.544500	1.544500	1.544500	1.544500	1.544500	1.544500	1.544500	1.544500	1.544500	1.544500	1.544500	1.544500	1.544500	1.544500	1.544500	1.544500	1.544500	1.544500	1.544500	1.544500	1.544500	1.544500	1.544500
-72.000000	1.527700	1.527800	1.527800	1.527800	1.527800	1.527800	1.527800	1.527800	1.527800	1.527800	1.527800	1.527800	1.527800	1.527800	1.527800	1.527800	1.527800	1.527800	1.527800	1.527800	1.527800	1.527800	1.527800	1.527800	1.527800	1.527800	1.527800	1.527800	1.527800	1.527800	1.527800	1.527800	1.527800	1.527800	1.527800	1.527800	1.527800	1.527800	1.527800
-71.000000	1.510200	1.510200	1.510200	1.510200	1.510200	1.510200	1.510200	1.510200	1.510200	1.510200	1.510200	1.510200	1.510200	1.510200	1.510200	1.510200	1.510200	1.510200	1.510200	1.510200	1.510200	1.510200	1.510200	1.510200	1.510200	1.510200	1.510200	1.510200	1.510200	1.510200	1.510200	1.510200	1.510200	1.510200	1.510200	1.510200	1.510200	1.510200	1.510200
-70.000000	1.491700	1.491800	1.491800	1.491800	1.491800	1.491800	1.491800	1.491800	1.491800	1.491800	1.491800	1.491800	1.491800	1.491800	1.491800	1.491800	1.491800	1.491800	1.491800	1.491800	1.491800	1.491800	1.491800	1.491800	1.491800	1.491800	1.491800	1.491800	1.491800	1.491800	1.491800	1.491800	1.491800	1.491800	1.491800	1.491800	1.491800	1.491800	1.491800
-69.000000	1.472600	1.472600	1.472600	1.472600	1.472600	1.472600	1.472600	1.472600	1.472600	1.472600	1.472600	1.472600	1.472600	1.472600	1.472600	1.472600	1.472600	1.472600	1.472600	1.472600	1.472600	1.472600	1.472600	1.472600	1.472600	1.472600	1.472600	1.472600	1.472600	1.472600	1.472600	1.472600	1.472600	1.472600	1.472600	1.472600	1.472600	1.472600	1.472600
-68.000000	1.452600	1.452600	1.452600	1.452600	1.452600	1.452600	1.452600	1.452600	1.452600	1.452600	1.452600	1.452600	1.452600	1.452600	1.452600	1.452600	1.452600	1.452600	1.452600	1.452600	1.452600	1.452600	1.452600	1.452600	1.452600	1.452600	1.452600	1.452600	1.452600	1.452600	1.452600	1.452600	1.452600	1.452600	1.452600	1.452600	1.452600	1.452600	1.452600
-67.000000	1.431900	1.431900	1.431900	1.431900	1.431900	1.431900	1.431900	1.431900	1.431900	1.431900	1.431900	1.432000	1.432000	1.432000	1.432000	1.432000	1.432000	1.432000	1.432000	1.432000	1.432000	1.432000	1.432000	1.432000	1.432000	1.432000	1.432000	1.432000	1.432000	1.432000	1.432000	1.432000	1.432000	1.432000	1.432000	1.432000	1.432000	1.432000	1.432000
-66.000000	1.410500	1.410500	1.410600	1.410600	1.410600	1.410600	1.410600	1.410600	1.410600	1.410600	1.410600	1.410600	1.410600	1.410600	1.410600	1.410600	1.410600	1.410600	1.410600	1.410600	1.410600	1.410600	1.410600	1.410600	1.410600	1.410600	1.410600	1.410600	1.410600	1.410600	1.410600	1.410600	1.410600	1.410600	1.410600	1.410600	1.410600	1.410600	1.410600
-65.000000	1.388500	1.388500	1.388500	1.388500	1.388500	1.388500	1.388500	1.388500	1.388500	1.388500	1.388500	1.388500	1.388500	1.388500	1.388500	1.388500	1.388500	1.388500	1.388500	1.388500	1.388500	1.388500	1.388500	1.388500	1.388500	1.388500	1.388500	1.388500	1.388500	1.388500	1.388500	1.388500	1.388500	1.388500	1.388500	1.388500	1.388500	1.388500	1.388500
-64.000000	1.365700	1.365700	1.365700	1.365700	1.365700	1.365700	1.365700	1.365700	1.365700	1.365700	1.365700	1.365700	1.365700	1.365700	1.365700	1.365700	1.365700	1.365700	1.365700	1.365700	1.365700	1.365700	1.365700	1.365700	1.365700	1.365700	1.365700	1.365700	1.365700	1.365700	1.365700	1.365700	1.365700	1.365700	1.365700	1.365700	1.365700	1.365700	1.365700
-63.000000	1.342400	1.342400	1.342400	1.342400	1.342400	1.342400	1.342400	1.342400	1.342400	1.342400	1.342400	1.342400	1.342400	1.342400	1.342400	1.342400	1.342400	1.342400	1.342400	1.342400	1.342400	1.342400	1.342400	1.342400	1.342400	1.342400	1.342400	1.342400	1.342400	1.342400	1.342400	1.342400	1.342400	1.342400	1.342400	1.342400	1.342400	1.342400	1.342400
-62.000000	1.318400	1.318400	1.318400	1.318400	1.318400	1.318400	1.318400	1.318400	1.318400	1.318400	1.318400	1.318400	1.318400	1.318400	1.318400	1.318400	1.318400	1.318400	1.318400	1.318400	1.318400	1.318400	1.318400	1.318400	1.318400	1.318400	1.318400	1.318400	1.318400	1.318400	1.318400	1.318400	1.318400	1.318400	1.318400	1.318400	1.318400	1.318400	1.318400
-61.000000	1.293800	1.293800	1.293800	1.293900	1.293900	1.293900	1.293900	1.293900	1.293900	1.293900	1.293900	1.293900	1.293900	1.293900	1.293900	1.293900	1.293900	1.293900	1.293900	1.293900	1.293900	1.293900	1.293900	1.293900	1.293900	1.293900	1.293900	1.293900	1.293900	1.293900	1.293900	1.293900	1.293900	1.293900	1.293900	1.293900	1.293900	1.293900	1.293900
-60.000000	1.268700	1.268800	1.268800	1.268800	1.268800	1.268800	1.268800	1.268800	1.268800	1.268800	1.268800	1.268800	1.268800	1.268800	1.268800	1.268800	1.268800	1.268800	1.268800	1.268800	1.268800	1.268800	1.268800	1.268800	1.268800	1.268800	1.268800	1.268800	1.268800	1.268800	1.268800	1.268800	1.268800	1.268800	1.268800	1.268800	1.268800	1.268800	1.268800
-59.000000	1.243100	1.243100	1.243100	1.243200	1.243200	1.243200	1.243200	1.243200	1.243200	1.243200	1.243200	1.243200	1.243200	1.243200	1.243200	1.243200	1.243200	1.243200	1.243200	1.243200	1.243200	1.243200	1.243200	1.243200	1.243200	1.243200	1.243200	1.243200	1.243200	1.243200	1.243200	1.243200	1.243200	1.243200	1.243200	1.243200	1.243200	1.243200	1.243200
-58.000000	1.217000	1.217100	1.217100	1.217100	1.217100	1.217100	1.217100	1.217100	1.217100	1.217100	1.217100	1.217100	1.217100	1.217100	1.217100	1.217100	1.217100	1.217100	1.217100	1.217100	1.217100	1.217100	1.217100	1.217100	1.217100	1.217100	1.217100	1.217100	1.217100	1.217100	1.217100	1.217100	1.217100	1.217100	1.217100	1.217100	1.217100	1.217100	1.217100
-57.000000	1.190500	1.190500	1.190500	1.190500	1.190500	1.190500	1.190500	1.190500	1.190500	1.190500	1.190500	1.190500	1.190500	1.190500	1.190500	1.190500	1.190500	1.190500	1.190500	1.190500	1.190500	1.190500	1.190500	1.190500	1.190500	1.190500	1.190500	1.190500	1.190500	1.190500	1.190500	1.190500	1.190500	1.190500	1.190500	1.190500	1.190500	1.190500	1.190500
-56.000000	1.163500	1.163600	1.163600	1.163600	1.163600	1.163600	1.163600	1.163600	1.163600	1.163600	1.163600	1.163600	1.163600	1.163600	1.163600	1.163600	1.163600	1.163600	1.163600	1.163600	1.163600	1.163600	1.163600	1.163600	1.163600	1.163600	1.163600	1.163600	1.163600	1.163600	1.163600	1.163600	1.163600	1.163600	1.163600	1.163600	1.163600	1.163600	1.163600
-55.000000	1.136200	1.136200	1.136200	1.136200	1.136200	1.136200	1.136200	1.136200	1.136200	1.136200	1.136200	1.136200	1.136200	1.136200	1.136200	1.136200	1.136200	1.136200	1.136200	1.136200	1.136200	1.136200	1.136200	1.136200	1.136200	1.136200	1.136200	1.136200	1.136200	1.136200	1.136200	1.136200	1.136200	1.136200	1.136200	1.136200	1.136200	1.136200	1.136200
-54.000000	1.108500	1.108500	1.108500	1.108500	1.108500	1.108500	1.108500	1.108500	1.108500	1.108500	1.108500	1.108500	1.108500	1.108500	1.108500	1.108500	1.108500	1.108500	1.108500	1.108500	1.108500	1.108500	1.108500	1.108500	1.108500	1.108500	1.108500	1.108500	1.108500	1.108500	1.108500	1.108500	1.108500	1.108500	1.108500	1.108500	1.108500	1.108500	1.108500
-53.000000	1.080500	1.080500	1.080500	1.080500	1.080500	1.080500	1.080500	1.080500	1.080500	1.080500	1.080500	1.080500	1.080500	1.080500	1.080500	1.080500	1.080500	1.080500	1.080500	1.080500	1.080500	1.080500	1.080500	1.080500	1.080500	1.080500	1.080500	1.080500	1.080500	1.080500	1.080500	1.080500	1.080500	1.080500	1.080500	1.080500	1.080500	1.080500	1.080500
-52.000000	1.052200	1.052200	1.052200	1.052200	1.052200	1.052200	1.052200	1.052200	1.052200	1.052200	1.052200	1.052200	1.052200	1.052200	1.052200	1.052200	1.052200	1.052200	1.052200	1.052200	1.052200	1.052200	1.052200	1.052200	1.052200	1.052200	1.052200	1.052200	1.052200	1.052200	1.052200	1.052200	1.052200	1.052200	1.052200	1.052200	1.052200	1.052200	1.052200
-51.000000	1.023600	1.023600	1.023600	1.023600	1.023600	1.023600	1.023600	1.023600	1.023600	1.023600	1.023600	1.023600	1.023600	1.023600	1.023600	1.023600	1.023600	1.023600	1.023600	1.023600	1.023600	1.023600	1.023600	1.023600	1.023600	1.023600	1.023600	1.023600	1.023600	1.023600	1.023600	1.023600	1.023600	1.023600	1.023600	1.023600	1.023600	1.023600	1.023600
-50.000000	0.994800	0.994800	0.994800	0.994800	0.994800	0.994800	0.994800	0.994800	0.994800	0.994800	0.994800	0.994800	0.994800	0.994800	0.994800	0.994800	0.994800	0.994800	0.994800	0.994800	0.994800	0.994800	0.994800	0.994800	0.994800	0.994800	0.994800	0.994800	0.994800	0.994800	0.994800	0.994800	0.994800	0.994800	0.994800	0.994800	0.994800	0.994800	0.994800
-49.000000	0.965800	0.965800	0.965900	0.965900	0.965900	0.965900	0.965900	0.965900	0.965900	0.965900	0.965900	0.965900	0.965900	0.965900	0.965900	0.965900	0.965900	0.965900	0.965900	0.965900	0.965900	0.965900	0.965900	0.965900	0.965900	0.965900	0.965900	0.965900	0.965900	0.965900	0.965900	0.965900	0.965900	0.965900	0.965900	0.965900	0.965900	0.965900	0.965900
-48.000000	0.936700	0.936700	0.936700	0.936700	0.936700	0.936800	0.936800	0.936800	0.936800	0.936800	0.936800	0.936800	0.936800	0.936800	0.936800	0.936800	0.936800	0.936800	0.936800	0.936800	0.936800	0.936800	0.936800	0.936800	0.936800	0.936800	0.936800	0.936800	0.936800	0.936800	0.936800	0.936800	0.936800	0.936800	0.936800	0.936800	0.936800	0.936800	0.936800
-47.000000	0.907500	0.907500	0.907500	0.907500	0.907500	0.907500	0.907500	0.907500	0.907500	0.907500	0.907500	0.907500	0.907500	0.907500	0.907500	0.907500	0.907500	0.907500	0.907500	0.907500	0.907500	0.907500	0.907500	0.907500	0.907500	0.907500	0.907500	0.907500	0.907500	0.907500	0.907500	0.907500	0.907500	0.907500	0.907500	0.907500	0.907500	0.907500	0.907500
-46.000000	0.878200	0.878200	0.878200	0.878200	0.878200	0.878200	0.878200	0.878200	0.878200	0.878200	0.878200	0.878200	0.878200	0.878200	0.878200	0.878200	0.878200	0.878200	0.878200	0.878200	0.878200	0.878200	0.878200	0.878200	0.878200	0.878200	0.878200	0.878200	0.878200	0.878200	0.878200	0.878200	0.878200	0.878200	0.878200	0.878200	0.878200	0.878200	0.878200
-45.000000	0.848800	0.848900	0.848900	0.848900	0.848900	0.848900	0.848900	0.848900	0.848900	0.848900	0.848900	0.848900	0.848900	0.848900	0.848900	0.848900	0.848900	0.848900	0.848900	0.848900	0.848900	0.848900	0.848900	0.848900	0.848900	0.848900	0.848900	0.848900	0.848900	0.848900	0.848900	0.848900	0.848900	0.848900	0.848900	0.848900	0.848900	0.848900	0.848900
-44.000000	0.819500	0.819500	0.819500	0.819500	0.819500	0.819500	0.819500	0.819500	0.819500	0.819500	0.819500	0.819500	0.819500	0.819500	0.819500	0.819500	0.819500	0.819500	0.819500	0.819500	0.819500	0.819500	0.819500	0.819500	0.819500	0.819500	0.819500	0.819500	0.819500	0.819500	0.819500	0.819500	0.819500	0.819500	0.819500	0.819500	0.819500	0.819500	0.819500
-43.000000	0.790100	0.790200	0.790200	0.790200	0.790200	0.790200	0.790200	0.790200	0.790200	0.790200	0.790200	0.790200	0.790200	0.790200	0.790200	0.790200	0.790200	0.790200	0.790200	0.790200	0.790200	0.790200	0.790200	0.790200	0.790200	0.790200	0.790200	0.790200	0.790200	0.790200	0.790200	0.790200	0.790200	0.790200	0.790200	0.790200	0.790200	0.790200	0.790200
-42.000000	0.760900	0.760900	0.760900	0.760900	0.760900	0.760900	0.760900	0.760900	0.760900	0.760900	0.760900	0.760900	0.760900	0.760900	0.760900	0.760900	0.760900	0.760900	0.760900	0.760900	0.760900	0.760900	0.760900	0.760900	0.760900	0.760900	0.760900	0.760900	0.760900	0.760900	0.760900	0.760900	0.760900	0.760900	0.760900	0.760900	0.760900	0.760900	0.760900
-41.000000	0.731700	0.731700	0.731700	0.731700	0.731800	0.731800	0.731800	0.731800	0.731800	0.731800	0.731800	0.731800	0.731800	0.731800	0.731800	0.731800	0.731800	0.731800	0.731800	0.731800	0.731800	0.731800	0.731800	0.731800	0.731800	0.731800	0.731800	0.731800	0.731800	0.731800	0.731800	0.731800	0.731800	0.731800	0.731800	0.731800	0.731800	0.731800	0.731800
-40.000000	0.702700	0.702700	0.702700	0.702700	0.702700	0.702700	0.702700	0.702700	0.702700	0.702700	0.702700	0.702700	0.702700	0.702700	0.702700	0.702700	0.702700	0.702700	0.702700	0.702700	0.702700	0.702700	0.702700	0.702700	0.702700	0.702700	0.702700	0.702700	0.702700	0.702700	0.702700	0.702700	0.702700	0.702700	0.702700	0.702700	0.702700	0.702700	0.702700
-39.000000	0.673800	0.673800	0.673800	0.673800	0.673900	0.673900	0.673900	0.673900	0.673900	0.673900	0.673900	0.673900	0.673900	0.673900	0.673900	0.673900	0.673900	0.673900	0.673900	0.673900	0.673900	0.673900	0.673900	0.673900	0.673900	0.673900	0.673900	0.673900	0.673900	0.673900	0.673900	0.673900	0.673900	0.673900	0.673900	0.673900	0.673900	0.673900	0.673900
-38.000000	0.645100	0.645200	0.645200	0.645200	0.645200	0.645200	0.645200	0.645200	0.645200	0.645200	0.645200	0.645200	0.645200	0.645200	0.645200	0.645200	0.645200	0.645200	0.645200	0.645200	0.645200	0.645200	0.645200	0.645200	0.645200	0.645200	0.645200	0.645200	0.645200	0.645200	0.645200	0.645200	0.645200	0.645200	0.645200	0.645200	0.645200	0.645200	0.645200
-37.000000	0.616700	0.616700	0.616800	0.616800	0.616800	0.616800	0.616800	0.616800	0.616800	0.616800	0.616800	0.616800	0.616800	0.616800	0.616800	0.616800	0.616800	0.616800	0.616800	0.616800	0.616800	0.616800	0.616800	0.616800	0.616800	0.616800	0.616800	0.616800	0.616800	0.616800	0.616800	0.616800	0.616800	0.616800	0.616800	0.616800	0.616800	0.616800	0.616800
-36.000000	0.588500	0.588600	0.588600	0.588600	0.588600	0.588600	0.588600	0.588600	0.588600	0.588600	0.588600	0.588600	0.588600	0.588600	0.588600	0.588600	0.588600	0.588600	0.588600	0.588600	0.588600	0.588600	0.588600	0.588600	0.588600	0.588600	0.588600	0.588600	0.588600	0.588600	0.588600	0.588600	0.588600	0.588600	0.588600	0.588600	0.588600	0.588600	0.588600
-35.000000	0.560700	0.560700	0.560800	0.560700	0.560800	0.560800	0.560800	0.560800	0.560800	0.560800	0.560800	0.560800	0.560800	0.560800	0.560800	0.560800	0.560800	0.560800	0.560800	0.560800	0.560700	0.560700	0.560700	0.560700	0.560700	0.560700	0.560700	0.560700	0.560700	0.560700	0.560700	0.560700	0.560700	0.560700	0.560700	0.560700	0.560700	0.560700	0.560700
-34.000000	0.533200	0.533200	0.533200	0.533200	0.533200	0.533200	0.533200	0.533200	0.533300	0.533300	0.533300	0.533200	0.533200	0.533200	0.533200	0.533200	0.533200	0.533200	0.533200	0.533200	0.533200	0.533200	0.533200	0.533200	0.533200	0.533200	0.533200	0.533200	0.533200	0.533200	0.533200	0.533200	0.533200	0.533200	0.533200	0.533200	0.533200	0.533200	0.533200
-33.000000	0.506000	0.506100	0.506100	0.506100	0.506100	0.506100	0.506100	0.506100	0.506100	0.506100	0.506100	0.506100	0.506100	0.506100	0.506100	0.506100	0.506100	0.506100	0.506100	0.506100	0.506100	0.506100	0.506100	0.506100	0.506100	0.506100	0.506100	0.506100	0.506100	0.506100	0.506100	0.506100	0.506100	0.506100	0.506100	0.506100	0.506100	0.506100	0.506100
-32.000000	0.479300	0.479300	0.479300	0.479300	0.479300	0.479300	0.479300	0.479400	0.479400	0.479400	0.479400	0.479300	0.479300	0.479300	0.479300	0.479300	0.479300	0.479300	0.479300	0.479300	0.479300	0.479300	0.479300	0.479300	0.479300	0.479300	0.479300	0.479300	0.479300	0.479300	0.479300	0.479300	0.479300	0.479300	0.479300	0.479300	0.479300	0.479300	0.479300
-31.000000	0.452900	0.453000	0.453000	0.453000	0.453000	0.453000	0.453000	0.453000	0.453000	0.453000	0.453000	0.453000	0.453000	0.453000	0.453000	0.453000	0.453000	0.453000	0.453000	0.453000	0.453000	0.453000	0.453000	0.453000	0.453000	0.453000	0.453000	0.453000	0.453000	0.453000	0.453000	0.453000	0.453000	0.453000	0.453000	0.453000	0.453000	0.453000	0.453000
-30.000000	0.427100	0.427100	0.427200	0.427100	0.427200	0.427200	0.427200	0.427200	0.427200	0.427200	0.427200	0.427100	0.427100	0.427100	0.427100	0.427100	0.427100	0.427100	0.427100	0.427100	0.427100	0.427100	0.427100	0.427100	0.427100	0.427100	0.427100	0.427100	0.427100	0.427100	0.427100	0.427100	0.427100	0.427100	0.427100	0.427100	0.427100	0.427100	0.427100
-29.000000	0.401700	0.401800	0.401800	0.401800	0.401800	0.401800	0.401800	0.401800	0.401800	0.401800	0.401800	0.401700	0.401700	0.401700	0.401700	0.401700	0.401700	0.401700	0.401800	0.401800	0.401700	0.401700	0.401700	0.401700	0.401700	0.401700	0.401700	0.401700	0.401700	0.401700	0.401700	0.401700	0.401700	0.401700	0.401700	0.401700	0.401700	0.401700	0.401700
-28.000000	0.376800	0.376900	0.376900	0.376900	0.376900	0.376900	0.376900	0.376900	0.376900	0.376900	0.376900	0.376800	0.376900	0.376900	0.376900	0.376900	0.376900	0.376900	0.376900	0.376900	0.376800	0.376800	0.376800	0.376800	0.376800	0.376800	0.376800	0.376800	0.376800	0.376800	0.376800	0.376800	0.376800	0.376800	0.376800	0.376800	0.376800	0.376800	0.376800
-27.000000	0.352400	0.352600	0.352600	0.352600	0.352600	0.352600	0.352600	0.352600	0.352600	0.352600	0.352600	0.352500	0.352500	0.352500	0.352500	0.352500	0.352500	0.352500	0.352500	0.352500	0.352400	0.352400	0.352400	0.352400	0.352400	0.352400	0.352400	0.352400	0.352400	0.352400	0.352400	0.352400	0.352400	0.352400	0.352400	0.352400	0.352400	0.352400	0.352400
-26.000000	0.328700	0.328800	0.328900	0.328800	0.328800	0.328800	0.328800	0.328800	0.328800	0.328800	0.328800	0.328700	0.328700	0.328700	0.328700	0.328700	0.328700	0.328700	0.328700	0.328700	0.328600	0.328600	0.328600	0.328600	0.328600	0.328600	0.328600	0.328600	0.328600	0.328600	0.328600	0.328600	0.328600	0.328600	0.328600	0.328600	0.328600	0.328600	0.328600
-25.000000	0.305400	0.305600	0.305700	0.305600	0.305600	0.305600	0.305600	0.305600	0.305600	0.305600	0.305600	0.305400	0.305500	0.305500	0.305500	0.305500	0.305500	0.305500	0.305500	0.305500	0.305300	0.305300	0.305300	0.305300	0.305300	0.305300	0.305300	0.305300	0.305300	0.305300	0.305300	0.305300	0.305300	0.305300	0.305300	0.305300	0.305300	0.305300	0.305300
-24.000000	0.282800	0.283000	0.283100	0.282900	0.282900	0.283000	0.283000	0.283000	0.283000	0.283000	0.283000	0.282800	0.282800	0.282800	0.282800	0.282800	0.282800	0.282800	0.282800	0.282800	0.282600	0.282500	0.282500	0.282500	0.282500	0.282500	0.282500	0.282500	0.282600	0.282600	0.282600	0.282600	0.282600	0.282600	0.282500	0.282500	0.282500	0.282500	0.282500
-23.000000	0.260700	0.261000	0.261100	0.260900	0.260900	0.260900	0.260900	0.261000	0.261000	0.261000	0.261000	0.260700	0.260700	0.260700	0.260700	0.260700	0.260700	0.260700	0.260700	0.260700	0.260400	0.260400	0.260400	0.260400	0.260300	0.260300	0.260400	0.260400	0.260400	0.260400	0.260400	0.260400	0.260400	0.260400	0.260400	0.260400	0.260400	0.260400	0.260400
-22.000000	0.239300	0.239600	0.239700	0.239400	0.239400	0.239500	0.239500	0.239500	0.239500	0.239500	0.239500	0.239100	0.239200	0.239200	0.239200	0.239200	0.239200	0.239200	0.239200	0.239200	0.238700	0.238700	0.238700	0.238700	0.238700	0.238700	0.238700	0.238700	0.238700	0.238700	0.238700	0.238700	0.238700	0.238700	0.238700	0.238700	0.238700	0.238700	0.238700
-21.000000	0.218400	0.218800	0.218900	0.218500	0.218500	0.218600	0.218600	0.218600	0.218600	0.218700	0.218700	0.218100	0.218100	0.218100	0.218100	0.218100	0.218100	0.218200	0.218200	0.218200	0.217500	0.217500	0.217500	0.217500	0.217500	0.217500	0.217500	0.217500	0.217500	0.217500	0.217500	0.217600	0.217500	0.217500	0.217500	0.217500	0.217500	0.217500	0.217500
-20.000000	0.198000	0.198500	0.198700	0.198100	0.198200	0.198200	0.198200	0.198300	0.198300	0.198300	0.198300	0.197500	0.197600	0.197600	0.197600	0.197600	0.197600	0.197600	0.197600	0.197600	0.196800	0.196700	0.196700	0.196700	0.196700	0.196700	0.196700	0.196700	0.196800	0.196800	0.196800	0.196800	0.196800	0.196800	0.196700	0.196700	0.196700	0.196700	0.196700
-19.000000	0.178100	0.178700	0.178900	0.178200	0.178200	0.178300	0.178300	0.178400	0.178400	0.178400	0.178400	0.177300	0.177400	0.177400	0.177400	0.177400	0.177400	0.177500	0.177500	0.177500	0.176200	0.176200	0.176200	0.176200	0.176200	0.176200	0.176200	0.176200	0.176200	0.176200	0.176200	0.176300	0.176200	0.176200	0.176200	0.176200	0.176200	0.176200	0.176200
-18.000000	0.158600	0.159300	0.159600	0.158500	0.158600	0.158700	0.158700	0.158800	0.158900	0.158900	0.158900	0.157300	0.157500	0.157500	0.157500	0.157500	0.157500	0.157500	0.157500	0.157500	0.155700	0.155700	0.155700	0.155700	0.155600	0.155600	0.155700	0.155700	0.155700	0.155800	0.155800	0.155800	0.155800	0.155700	0.155700	0.155700	0.155700	0.155700	0.155600
-17.000000	0.139200	0.140300	0.140700	0.139100	0.139200	0.139300	0.139300	0.139400	0.139500	0.139500	0.139500	0.137300	0.137500	0.137500	0.137500	0.137500	0.137500	0.137500	0.137600	0.137600	0.135000	0.134900	0.134900	0.134800	0.134800	0.134800	0.134900	0.134900	0.134900	0.135000	0.135000	0.135000	0.135000	0.134900	0.134900	0.134900	0.134800	0.134800	0.134800
-16.000000	0.119900	0.121300	0.121800	0.119500	0.119700	0.119800	0.119800	0.120000	0.120000	0.120100	0.120100	0.116900	0.117100	0.117100	0.117100	0.117100	0.117100	0.117200	0.117200	0.117200	0.113400	0.113400	0.113300	0.113200	0.113200	0.113200	0.113300	0.113300	0.113400	0.113400	0.113400	0.113400	0.113400	0.113400	0.113300	0.113300	0.113300	0.113200	0.113200
-15.000000	0.100300	0.102100	0.102800	0.099400	0.099700	0.099900	0.099900	0.100100	0.100200	0.100200	0.100200	0.095700	0.096000	0.096000	0.096000	0.096000	0.096000	0.096100	0.096100	0.096100	0.090700	0.090600	0.090500	0.090400	0.090400	0.090400	0.090500	0.090500	0.090600	0.090700	0.090700	0.090700	0.090700	0.090600	0.090500	0.090500	0.090400	0.090400	0.090400
-14.000000	0.080300	0.082500	0.083400	0.078700	0.079000	0.079300	0.079400	0.079600	0.079700	0.079800	0.079700	0.073500	0.073900	0.073900	0.073900	0.073900	0.073900	0.074000	0.074100	0.074000	0.066800	0.066700	0.066600	0.066500	0.066500	0.066500	0.066600	0.066700	0.066800	0.066800	0.066900	0.066900	0.066800	0.066800	0.066700	0.066600	0.066600	0.066500	0.066500
-13.000000	0.060000	0.062600	0.063700	0.057700	0.058100	0.058400	0.058500	0.058700	0.058800	0.058900	0.058900	0.051300	0.051800	0.051800	0.051800	0.051800	0.051800	0.051900	0.052000	0.051900	0.043900	0.043800	0.043700	0.043600	0.043600	0.043600	0.043700	0.043800	0.043900	0.043900	0.044000	0.044000	0.043900	0.043800	0.043800	0.043700	0.043600	0.043600	0.043600
-12.000000	0.040900	0.043600	0.044700	0.038200	0.038600	0.038900	0.039000	0.039200	0.039300	0.039400	0.039400	0.032200	0.032500	0.032600	0.032600	0.032500	0.032500	0.032600	0.032700	0.032700	0.026200	0.026200	0.026100	0.026000	0.026000	0.026000	0.026100	0.026100	0.026200	0.026200	0.026200	0.026300	0.026200	0.026200	0.026100	0.026100	0.026000	0.026000	0.026000
-11.000000	0.026000	0.027900	0.028800	0.023700	0.024000	0.024200	0.024200	0.024400	0.024400	0.024500	0.024500	0.019800	0.020000	0.020000	0.020000	0.020000	0.020000	0.020100	0.020100	0.020100	0.016800	0.016800	0.016800	0.016700	0.016700	0.016700	0.016700	0.016800	0.016800	0.016800	0.016800	0.016800	0.016800	0.016800	0.016800	0.016700	0.016700	0.016700	0.016700
-10.000000	0.041000	0.031300	0.027400	0.023500	0.020800	0.023000	0.020100	0.018100	0.016400	0.015800	0.015100	0.014500	0.014000	0.013600	0.013300	0.013000	0.012800	0.012600	0.012400	0.012200	0.012100	0.012100	0.012100	0.012100	0.012100	0.012100	0.012100	0.012200	0.012200	0.013800	0.013800	0.013800	0.013800	0.013800	0.013800	0.013800	0.013800	0.013800	0.011500
-9.500000	0.035250	0.026800	0.024700	0.021500	0.019200	0.017500	0.016500	0.017300	0.016200	0.015400	0.014700	0.014200	0.013700	0.013300	0.013000	0.012700	0.012400	0.012200	0.012000	0.011800	0.011600	0.011400	0.011300	0.011200	0.011100	0.011000	0.010900	0.010800	0.010700	0.010600	0.011000	0.011000	0.010400	0.010300	0.011800	0.011000	0.010200	0.010100	0.010100
-9.000000	0.029500	0.025000	0.023700	0.020000	0.017900	0.016600	0.015600	0.014800	0.014300	0.014200	0.014600	0.014100	0.013600	0.013200	0.012800	0.012500	0.012200	0.011900	0.011700	0.011500	0.011300	0.011100	0.011000	0.010800	0.010700	0.010600	0.010500	0.010400	0.010300	0.010200	0.010100	0.010000	0.010000	0.009900	0.009800	0.009800	0.009700	0.009700	0.009600
-8.500000	0.027500	0.022800	0.019200	0.019100	0.017000	0.015800	0.014800	0.014100	0.013500	0.013100	0.012800	0.012600	0.012600	0.012700	0.012600	0.011900	0.011900	0.011700	0.011400	0.011200	0.011000	0.010800	0.010700	0.010500	0.010400	0.010300	0.010100	0.010000	0.009900	0.009900	0.009800	0.009700	0.009600	0.009600	0.009500	0.009400	0.009400	0.009300	0.009200
-8.000000	0.024900	0.020600	0.017600	0.016300	0.016200	0.014900	0.014000	0.013300	0.012800	0.012400	0.012000	0.011800	0.011600	0.011500	0.011400	0.011300	0.011300	0.011400	0.011100	0.010900	0.010700	0.010500	0.010400	0.010200	0.010100	0.010000	0.009800	0.009700	0.009600	0.009500	0.009400	0.009400	0.009300	0.009200	0.009200	0.009100	0.009100	0.009000	0.008900
-7.500000	0.022300	0.018400	0.016300	0.015000	0.014800	0.014100	0.013200	0.012600	0.012100	0.011700	0.011400	0.011100	0.010900	0.010800	0.010600	0.010500	0.010400	0.010400	0.010300	0.010300	0.010300	0.010200	0.010000	0.009900	0.009750	0.009600	0.009500	0.009400	0.009300	0.009200	0.009100	0.009100	0.009000	0.008900	0.008900	0.008800	0.008700	0.008700	0.008600
-7.000000	0.019500	0.016300	0.015200	0.014000	0.013200	0.013200	0.012500	0.011900	0.011500	0.011100	0.010800	0.010600	0.010400	0.010200	0.010100	0.010000	0.009800	0.009700	0.009700	0.009600	0.009500	0.009500	0.009400	0.009400	0.009400	0.009300	0.009200	0.009100	0.009000	0.008900	0.008800	0.008700	0.008700	0.008600	0.008600	0.008500	0.008500	0.008400	0.008400
-6.500000	0.017500	0.015500	0.013800	0.013200	0.012400	0.011800	0.011400	0.011400	0.010850	0.010600	0.010400	0.010100	0.009900	0.009700	0.009600	0.009400	0.009300	0.009200	0.009100	0.009000	0.008900	0.008900	0.008800	0.008700	0.008700	0.008600	0.008600	0.008600	0.008600	0.008450	0.008500	0.008400	0.008400	0.008300	0.008300	0.008200	0.008200	0.008100	0.008100
-6.000000	0.015500	0.013800	0.012900	0.012200	0.011600	0.011300	0.010900	0.010500	0.010200	0.010000	0.009800	0.009600	0.009500	0.009400	0.009300	0.009200	0.009100	0.008900	0.008800	0.008700	0.008600	0.008600	0.008500	0.008400	0.008300	0.008300	0.008200	0.008100	0.008100	0.008000	0.008000	0.007900	0.007900	0.007800	0.007800	0.007800	0.007700	0.007700	0.007700
-5.500000	0.012500	0.012100	0.011600	0.011200	0.010800	0.010500	0.010050	0.009750	0.009700	0.009500	0.009400	0.009300	0.009100	0.008900	0.008800	0.008700	0.008600	0.008500	0.008500	0.008400	0.008300	0.008200	0.008200	0.008100	0.008100	0.008000	0.008000	0.007900	0.007900	0.007800	0.007700	0.007700	0.007700	0.007550	0.007600	0.007600	0.007500	0.007500	0.007400
-5.000000	0.012100	0.010200	0.009800	0.009700	0.009500	0.009400	0.009200	0.009000	0.008900	0.008900	0.008700	0.008600	0.008500	0.008400	0.008400	0.008200	0.008200	0.008100	0.008100	0.008000	0.007900	0.007900	0.007800	0.007800	0.007700	0.007700	0.007600	0.007600	0.007500	0.007500	0.007400	0.007400	0.007400	0.007300	0.007300	0.007300	0.007300	0.007200	0.007200
-4.500000	0.012100	0.009900	0.008800	0.008300	0.008100	0.008000	0.008000	0.008000	0.007900	0.007900	0.007900	0.007900	0.007800	0.007800	0.007700	0.007700	0.007600	0.007600	0.007600	0.007500	0.007400	0.007400	0.007300	0.007300	0.007300	0.007300	0.007200	0.007200	0.007200	0.007100	0.007100	0.007100	0.007100	0.007000	0.007000	0.007000	0.006900	0.006900	0.006900
-4.000000	0.012400	0.009800	0.008600	0.008000	0.007500	0.007200	0.007000	0.006800	0.006800	0.006800	0.006800	0.006800	0.006800	0.006800	0.006800	0.006750	0.006800	0.006800	0.006800	0.006800	0.006800	0.006800	0.006800	0.006800	0.006800	0.006800	0.006800	0.006800	0.006700	0.006700	0.006700	0.006600	0.006600	0.006600	0.006600	0.006600	0.006600	0.006500	0.006500
-3.500000	0.012600	0.009900	0.008600	0.007800	0.007400	0.007000	0.006700	0.006500	0.006300	0.006200	0.006100	0.006000	0.006000	0.005900	0.005900	0.005800	0.005800	0.005800	0.005900	0.006000	0.006000	0.006000	0.006100	0.006050	0.006100	0.006200	0.006200	0.006200	0.006200	0.006200	0.006200	0.006300	0.006300	0.006200	0.006200	0.006200	0.006200	0.006200	0.006200
-3.000000	0.012900	0.009900	0.008600	0.007800	0.007200	0.006900	0.006600	0.006400	0.006200	0.006000	0.005900	0.005800	0.005700	0.005600	0.005600	0.005500	0.005400	0.005400	0.005400	0.005300	0.005300	0.005300	0.005300	0.005300	0.005300	0.005300	0.005300	0.005300	0.005300	0.005300	0.005400	0.005400	0.005400	0.005500	0.005500	0.005500	0.005500	0.005500	0.005600
-2.500000	0.013000	0.010000	0.008600	0.007700	0.007200	0.006800	0.006500	0.006300	0.006100	0.005900	0.005800	0.005700	0.005600	0.005500	0.005400	0.005300	0.005300	0.005200	0.005200	0.005100	0.005100	0.005100	0.005000	0.005000	0.005000	0.004900	0.004900	0.004900	0.004900	0.004900	0.004900	0.004900	0.004900	0.004900	0.004900	0.004900	0.004900	0.004900	0.004900
-2.000000	0.013000	0.010000	0.008600	0.007700	0.007200	0.006800	0.006400	0.006200	0.006000	0.005800	0.005700	0.005600	0.005500	0.005400	0.005300	0.005300	0.005200	0.005100	0.005100	0.005000	0.005000	0.004900	0.004900	0.004900	0.004800	0.004800	0.004800	0.004800	0.004700	0.004700	0.004700	0.004700	0.004700	0.004600	0.004600	0.004600	0.004600	0.004600	0.004500
-1.500000	0.013000	0.010000	0.008600	0.007700	0.007200	0.006700	0.006500	0.006200	0.005900	0.005800	0.005600	0.005500	0.005400	0.005300	0.005200	0.005100	0.005100	0.005000	0.005000	0.004900	0.004900	0.004900	0.004800	0.004800	0.004700	0.004700	0.004700	0.004600	0.004600	0.004600	0.004600	0.004600	0.004500	0.004500	0.004500	0.004500	0.004500	0.004500	0.004500
-1.000000	0.013000	0.010000	0.008600	0.007700	0.007100	0.006800	0.006400	0.006100	0.006000	0.005800	0.005600	0.005500	0.005400	0.005300	0.005200	0.005200	0.005100	0.005000	0.004900	0.004900	0.004800	0.004800	0.004700	0.004700	0.004700	0.004700	0.004600	0.004600	0.004600	0.004500	0.004500	0.004500	0.004500	0.004400	0.004400	0.004400	0.004400	0.004400	0.004300
-0.500000	0.013000	0.010000	0.008600	0.007700	0.007200	0.006700	0.006400	0.006200	0.005900	0.005800	0.005600	0.005500	0.005400	0.005300	0.005200	0.005100	0.005000	0.005000	0.004900	0.004900	0.004800	0.004800	0.004800	0.004700	0.004700	0.004600	0.004600	0.004500	0.004500	0.004500	0.004500	0.004400	0.004400	0.004400	0.004400	0.004400	0.004400	0.004300	0.004300
0.000000	0.013000	0.010000	0.008600	0.007800	0.007200	0.006800	0.006400	0.006200	0.006000	0.005800	0.005700	0.005500	0.005400	0.005300	0.005200	0.005200	0.005100	0.005000	0.005000	0.004900	0.004800	0.004800	0.004700	0.004700	0.004700	0.004600	0.004600	0.004600	0.004600	0.004500	0.004500	0.004500	0.004400	0.004400	0.004400	0.004400	0.004300	0.004300	0.004300
0.500000	0.013000	0.010100	0.008700	0.007800	0.007300	0.006800	0.006500	0.006200	0.006000	0.005800	0.005700	0.005550	0.005400	0.005400	0.005300	0.005200	0.005100	0.005000	0.005000	0.004900	0.004900	0.004800	0.004800	0.004800	0.004700	0.004700	0.004600	0.004600	0.004600	0.004500	0.004500	0.004500	0.004500	0.004400	0.004400	0.004400	0.004400	0.004400	0.004400
1.000000	0.013100	0.010100	0.008700	0.007900	0.007200	0.006800	0.006500	0.006200	0.006100	0.005900	0.005700	0.005600	0.005500	0.005400	0.005300	0.005200	0.005200	0.005100	0.005000	0.005000	0.004900	0.004900	0.004800	0.004800	0.004700	0.004700	0.004700	0.004700	0.004600	0.004600	0.004600	0.004600	0.004500	0.004500	0.004500	0.004400	0.004400	0.004400	0.004400
1.500000	0.013100	0.010200	0.008800	0.007900	0.007300	0.006900	0.006600	0.006300	0.006100	0.005900	0.005800	0.005700	0.005500	0.005500	0.005400	0.005300	0.005200	0.005100	0.005100	0.005000	0.005000	0.004900	0.004900	0.004900	0.004800	0.004800	0.004700	0.004700	0.004700	0.004600	0.004600	0.004600	0.004600	0.004600	0.004600	0.004600	0.004500	0.004500	0.004500
2.000000	0.013300	0.010200	0.008800	0.008000	0.007400	0.007000	0.006700	0.006400	0.006200	0.006000	0.005900	0.005700	0.005600	0.005500	0.005400	0.005400	0.005300	0.005200	0.005200	0.005100	0.005100	0.005000	0.005000	0.005000	0.005000	0.004900	0.004900	0.004800	0.004800	0.004800	0.004700	0.004700	0.004700	0.004700	0.004700	0.004700	0.004600	0.004600	0.004600
2.500000	0.013300	0.010400	0.009000	0.008000	0.007500	0.007000	0.006700	0.006500	0.006300	0.006100	0.006000	0.005900	0.005700	0.005600	0.005500	0.005500	0.005400	0.005400	0.005350	0.005300	0.005200	0.005100	0.005100	0.005100	0.005100	0.005100	0.005000	0.005000	0.005000	0.004900	0.004900	0.004900	0.004900	0.004900	0.004900	0.004900	0.004800	0.004800	0.004800
3.000000	0.013400	0.010400	0.009000	0.008200	0.007500	0.007200	0.006800	0.006600	0.006400	0.006200	0.006100	0.006000	0.005900	0.005800	0.005700	0.005600	0.005600	0.005500	0.005500	0.005400	0.005400	0.005300	0.005300	0.005300	0.005300	0.005200	0.005200	0.005200	0.005100	0.005100	0.005100	0.005100	0.005100	0.005100	0.005100	0.005100	0.005100	0.005100	0.005100
3.500000	0.013400	0.010500	0.009000	0.008200	0.007700	0.007300	0.007000	0.006700	0.006600	0.006400	0.006300	0.006200	0.006100	0.006000	0.005900	0.005800	0.005800	0.005800	0.005700	0.005700	0.005700	0.005700	0.005600	0.005600	0.005700	0.005700	0.005700	0.005700	0.005700	0.005700	0.005700	0.005700	0.005700	0.005700	0.005700	0.005700	0.005800	0.005800	0.005800
4.000000	0.013250	0.010500	0.009200	0.008400	0.007800	0.007500	0.007200	0.006900	0.006800	0.006700	0.006600	0.006500	0.006400	0.006400	0.006300	0.006300	0.006300	0.006200	0.006200	0.006300	0.006200	0.006300	0.006300	0.006400	0.006400	0.006300	0.006300	0.006400	0.006400	0.006400	0.006400	0.006400	0.006400	0.006400	0.006400	0.006400	0.006500	0.006500	0.006400
4.500000	0.013100	0.010500	0.009300	0.008500	0.008100	0.007700	0.007500	0.007300	0.007200	0.007100	0.007100	0.007000	0.007000	0.007000	0.007000	0.007100	0.007100	0.007100	0.007100	0.007100	0.007200	0.007200	0.007200	0.007200	0.007300	0.007300	0.007300	0.007300	0.007300	0.007300	0.007300	0.007300	0.007300	0.007300	0.007300	0.007300	0.007300	0.007300	0.007300
5.000000	0.012900	0.010500	0.009500	0.008800	0.008400	0.008200	0.008100	0.008000	0.008000	0.008100	0.008100	0.008100	0.008200	0.008200	0.008300	0.008300	0.008300	0.008300	0.008300	0.008200	0.008200	0.008200	0.008200	0.008100	0.008100	0.008100	0.008100	0.008100	0.008000	0.008000	0.007900	0.007900	0.007900	0.007900	0.007900	0.007900	0.007800	0.007800	0.007800
5.500000	0.012500	0.010700	0.009900	0.009900	0.009300	0.009400	0.009400	0.009500	0.009500	0.009500	0.009500	0.009200	0.009400	0.009300	0.009200	0.009150	0.009100	0.009100	0.009000	0.009000	0.008900	0.008900	0.008800	0.008800	0.008800	0.008700	0.008700	0.008600	0.008600	0.008600	0.008600	0.008600	0.008500	0.008500	0.008400	0.008400	0.008400	0.008400	0.008300
6.000000	0.012400	0.011200	0.011000	0.011000	0.011100	0.011100	0.011000	0.010800	0.010700	0.010600	0.010500	0.010300	0.010200	0.010200	0.010100	0.010000	0.009900	0.009800	0.009800	0.009700	0.009600	0.009600	0.009500	0.009500	0.009400	0.009300	0.009300	0.009200	0.009200	0.009100	0.009100	0.009000	0.009000	0.009000	0.008900	0.008900	0.008900	0.008800	0.008800
6.500000	0.012900	0.012900	0.012850	0.012800	0.012600	0.012300	0.012100	0.011900	0.011550	0.011500	0.011300	0.011200	0.011100	0.010900	0.010800	0.010600	0.010500	0.010400	0.010300	0.010300	0.010200	0.010100	0.010000	0.010000	0.009900	0.009800	0.009800	0.009700	0.009700	0.009550	0.009500	0.009500	0.009400	0.009400	0.009300	0.009300	0.009200	0.009200	0.009100
7.000000	0.015400	0.014600	0.014700	0.014300	0.013800	0.013500	0.013100	0.012800	0.012400	0.012200	0.012000	0.011800	0.011700	0.011600	0.011400	0.011300	0.011100	0.011000	0.010800	0.010700	0.010600	0.010500	0.010400	0.010400	0.010400	0.010200	0.010100	0.010100	0.010000	0.010000	0.009900	0.009900	0.009800	0.009800	0.009700	0.009700	0.009700	0.009600	0.009600
7.500000	0.018800	0.016900	0.015800	0.015500	0.014900	0.014300	0.013900	0.013700	0.013500	0.013100	0.012800	0.012500	0.012200	0.012100	0.011900	0.011700	0.011600	0.011500	0.011400	0.011300	0.011200	0.011100	0.011000	0.011000	0.010900	0.010800	0.010800	0.010700	0.010700	0.010467	0.010350	0.010350	0.010250	0.010250	0.010300	0.010200	0.010100	0.010050	0.010000
8.000000	0.021300	0.018700	0.017600	0.016300	0.015700	0.015400	0.015200	0.014600	0.014100	0.013700	0.013300	0.013100	0.012900	0.012700	0.012500	0.012300	0.012200	0.012100	0.012000	0.011900	0.011800	0.011800	0.011700	0.011550	0.011450	0.011300	0.011233	0.011133	0.011100	0.010933	0.010800	0.010800	0.010700	0.010700	0.010600	0.010600	0.010500	0.010500	0.010400
8.500000	0.023100	0.020400	0.019100	0.017500	0.016800	0.016700	0.015900	0.015200	0.014800	0.014400	0.014000	0.013800	0.013750	0.013400	0.013200	0.013100	0.013000	0.012900	0.012900	0.012700	0.012350	0.012400	0.012200	0.012100	0.012000	0.011800	0.011667	0.011567	0.011500	0.011400	0.011250	0.011250	0.011150	0.011100	0.011000	0.011000	0.010900	0.010800	0.010800
9.000000	0.026000	0.023300	0.020600	0.019100	0.018800	0.017400	0.016500	0.015900	0.015500	0.015100	0.014900	0.014700	0.014600	0.014600	0.014300	0.014000	0.013700	0.013500	0.013300	0.013100	0.012900	0.012800	0.012600	0.012500	0.012300	0.012200	0.012100	0.012000	0.011900	0.011800	0.011700	0.011700	0.011600	0.011500	0.011400	0.011400	0.011300	0.011300	0.011200
9.500000	0.028300	0.025300	0.022300	0.022000	0.019800	0.018500	0.017500	0.016800	0.016400	0.016800	0.016300	0.015800	0.015300	0.015000	0.014600	0.014400	0.014250	0.013900	0.013700	0.013500	0.013500	0.013200	0.013100	0.012900	0.012800	0.012700	0.012600	0.012850	0.012500	0.012400	0.012300	0.012500	0.012500	0.012500	0.012500	0.012225	0.012167	0.012100	0.011967
10.000000	0.030800	0.027500	0.025400	0.023400	0.021300	0.019800	0.019100	0.020000	0.018600	0.017600	0.016900	0.016300	0.015800	0.015500	0.015200	0.015050	0.014800	0.014600	0.014400	0.014200	0.014100	0.014100	0.013900	0.013900	0.013800	0.013800	0.013700	0.013700	0.013600	0.013600	0.013600	0.013600	0.013600	0.013600	0.013600	0.013050	0.013033	0.012900	0.012733
10.500000	0.036300	0.030100	0.028700	0.025700	0.023400	0.022100	0.022050	0.021300	0.019800	0.018700	0.017900	0.017300	0.016700	0.016300	0.015900	0.015700	0.015500	0.015400	0.015300	0.015200	0.015100	0.015000	0.014900	0.014950	0.014900	0.014800	0.014800	0.014800	0.014800	0.014800	0.014900	0.015000	0.014450	0.014350	0.014250	0.013875	0.013900	0.013700	0.013500
11.000000	0.041400	0.033200	0.031500	0.028400	0.025900	0.025900	0.025000	0.022800	0.021300	0.020200	0.019300	0.018600	0.018000	0.017500	0.017100	0.016800	0.016600	0.016400	0.016200	0.016100	0.016000	0.016150	0.016150	0.016000	0.016000	0.016100	0.016200	0.016300	0.016400	0.016200	0.015900	0.015700	0.015300	0.015100	0.014900	0.014700	0.014600	0.014400	0.014300
11.500000	0.047100	0.037400	0.034300	0.031000	0.028900	0.030300	0.027400	0.025200	0.023500	0.022200	0.021200	0.020300	0.019500	0.018900	0.018500	0.018100	0.017900	0.017700	0.017500	0.017400	0.017400	0.017300	0.017400	0.017400	0.017500	0.017600	0.017800	0.017600	0.017200	0.017100	0.016600	0.016400	0.016200	0.016000	0.015800	0.015600	0.015400	0.015200	0.015100
12.000000	0.052600	0.045400	0.037600	0.034000	0.032900	0.033100	0.030100	0.027900	0.026200	0.024700	0.023500	0.022400	0.021400	0.020700	0.020100	0.019700	0.019500	0.019300	0.019200	0.019100	0.019200	0.019200	0.019400	0.019500	0.019800	0.019900	0.019300	0.018800	0.018400	0.018000	0.017700	0.017300	0.017000	0.016800	0.016500	0.016300	0.016100	0.015900	0.015850
12.500000	0.058100	0.049100	0.041700	0.037600	0.037900	0.036200	0.033300	0.031000	0.029200	0.027600	0.026100	0.024800	0.023700	0.022800	0.022200	0.021800	0.021600	0.021500	0.021400	0.021500	0.021700	0.021900	0.022200	0.022500	0.022200	0.021500	0.020900	0.020300	0.019800	0.019400	0.018900	0.018500	0.018200	0.017800	0.017500	0.017300	0.017000	0.016800	0.016600
13.000000	0.065200	0.054900	0.046500	0.041700	0.043600	0.039800	0.036800	0.034500	0.032500	0.030800	0.029100	0.027600	0.026200	0.025300	0.024700	0.024400	0.024200	0.024300	0.024400	0.024700	0.025000	0.025400	0.025700	0.024900	0.024100	0.023300	0.022600	0.022000	0.021400	0.020800	0.020300	0.019900	0.019400	0.019100	0.018700	0.018400	0.018100	0.017800	0.017600
13.500000	0.074800	0.062200	0.052200	0.046600	0.049300	0.043900	0.040700	0.038300	0.036200	0.034200	0.032400	0.030500	0.029100	0.028200	0.027800	0.027600	0.027700	0.028000	0.028300	0.028900	0.029600	0.028900	0.027900	0.026900	0.026000	0.025200	0.024400	0.023700	0.023000	0.022400	0.021900	0.021300	0.020900	0.020400	0.020000	0.019700	0.019300	0.019000	0.018700
14.000000	0.087800	0.071300	0.058800	0.053200	0.054300	0.048600	0.045200	0.042600	0.040300	0.038000	0.035800	0.033700	0.032400	0.031800	0.031700	0.031800	0.032200	0.032800	0.033600	0.033700	0.032400	0.031200	0.030100	0.029000	0.028000	0.027200	0.026300	0.025500	0.024800	0.024100	0.023500	0.022900	0.022400	0.021900	0.021500	0.021100	0.020700	0.020400	0.020100
14.500000	0.107400	0.083000	0.066800	0.062100	0.060200	0.054100	0.050300	0.047400	0.044700	0.042000	0.039400	0.037500	0.036600	0.036400	0.036600	0.037200	0.038100	0.039400	0.037800	0.036300	0.035000	0.033600	0.032400	0.031300	0.030200	0.029200	0.028300	0.027400	0.026700	0.025900	0.025300	0.024700	0.024100	0.023600	0.023100	0.022700	0.022300	0.022000	0.021600
15.000000	0.164700	0.099100	0.076400	0.074000	0.067300	0.060600	0.056100	0.052700	0.049500	0.046300	0.043600	0.042200	0.041900	0.042200	0.043100	0.044600	0.044400	0.042600	0.040700	0.039200	0.037700	0.036200	0.034900	0.033700	0.032500	0.031400	0.030400	0.029500	0.028700	0.027900	0.027200	0.026600	0.026000	0.025500	0.024900	0.024500	0.024100	0.023700	0.023400
15.500000	0.181800	0.122580	0.088600	0.088200	0.075900	0.068100	0.062900	0.058500	0.054600	0.051000	0.048800	0.048200	0.048700	0.050100	0.052500	0.050000	0.048000	0.045900	0.044000	0.042300	0.040600	0.039000	0.037600	0.036200	0.034900	0.033800	0.032700	0.031800	0.030900	0.030100	0.029300	0.028700	0.028100	0.027600	0.027000	0.026500	0.026100	0.025700	0.025400
16.000000	0.191300	0.146060	0.106300	0.104500	0.086500	0.076900	0.070400	0.064800	0.060100	0.056800	0.055600	0.056300	0.058800	0.059700	0.056800	0.054100	0.051800	0.049500	0.047500	0.045600	0.043600	0.042000	0.040400	0.038900	0.037600	0.036400	0.035200	0.034300	0.033400	0.032500	0.031700	0.031100	0.030500	0.029900	0.029300	0.028800	0.028400	0.028000	0.027600
16.500000	0.196400	0.169540	0.185400	0.122300	0.099700	0.087200	0.078500	0.071700	0.066600	0.064400	0.065200	0.069800	0.068000	0.064700	0.061300	0.058600	0.056000	0.053300	0.051200	0.049000	0.047000	0.045200	0.043400	0.041900	0.040600	0.039200	0.038100	0.037100	0.036200	0.035300	0.034500	0.033800	0.033200	0.032600	0.032000	0.031400	0.031000	0.030600	0.030200
17.000000	0.206300	0.193020	0.197833	0.142300	0.117600	0.099800	0.087700	0.079300	0.074800	0.075300	0.082800	0.078600	0.073800	0.070100	0.066300	0.063300	0.060200	0.057600	0.055100	0.052600	0.050700	0.048700	0.046800	0.045400	0.043900	0.042400	0.041400	0.040400	0.039300	0.038300	0.037600	0.036900	0.036300	0.035600	0.035000	0.034400	0.034000	0.033600	0.033100
17.500000	0.216200	0.216500	0.210267	0.182700	0.166800	0.115500	0.097700	0.088400	0.086800	0.094900	0.091700	0.085600	0.080200	0.075900	0.071800	0.068500	0.065000	0.062200	0.059200	0.056900	0.054700	0.052400	0.050800	0.049100	0.047400	0.046200	0.045100	0.044000	0.042800	0.042000	0.041200	0.040500	0.039800	0.039100	0.038400	0.037900	0.037400	0.037000	0.036600
18.000000	0.226100	0.224100	0.222700	0.223100	0.216000	0.143600	0.108800	0.100600	0.106500	0.110500	0.100500	0.093300	0.087200	0.082100	0.077900	0.073800	0.070300	0.067100	0.064000	0.061600	0.058900	0.056900	0.055200	0.053200	0.051700	0.050500	0.049300	0.048000	0.046900	0.046100	0.045300	0.044600	0.043900	0.043100	0.042400	0.041900	0.041500	0.041100	0.040700
18.500000	0.232600	0.230500	0.231800	0.230500	0.225314	0.171600	0.122600	0.118200	0.131100	0.121800	0.110300	0.101900	0.095000	0.089100	0.084600	0.079800	0.076300	0.072300	0.069600	0.066700	0.064100	0.062100	0.060000	0.058000	0.056600	0.055300	0.054000	0.052600	0.051700	0.050900	0.050200	0.049400	0.048700	0.048000	0.047300	0.046900	0.046500	0.046100	0.045800
19.000000	0.239700	0.236600	0.240200	0.236700	0.234629	0.199600	0.141400	0.140100	0.154500	0.136700	0.121100	0.111400	0.103700	0.097100	0.092200	0.086900	0.083000	0.078800	0.075800	0.072300	0.070000	0.067900	0.065400	0.063700	0.062300	0.061000	0.059500	0.058300	0.057500	0.056700	0.056000	0.055400	0.054900	0.061500	0.059900	0.056700	0.057600	0.056600	0.055800
19.500000	0.248667	0.248800	0.248900	0.241400	0.243943	0.227600	0.173925	0.164400	0.180800	0.161500	0.134700	0.122100	0.113500	0.106500	0.100700	0.095000	0.090600	0.086200	0.082900	0.079300	0.076900	0.074500	0.072000	0.070500	0.069200	0.067900	0.066600	0.075700	0.077300	0.073050	0.075900	0.073300	0.071400	0.069900	0.068300	0.066500	0.065100	0.064000	0.063000
20.000000	0.257633	0.257800	0.256200	0.254300	0.253257	0.255600	0.206450	0.154500	0.161000	0.153500	0.151600	0.135800	0.125600	0.117500	0.110500	0.104100	0.099400	0.094600	0.091000	0.087200	0.084800	0.082600	0.080300	0.082500	0.084900	0.086500	0.085000	0.089700	0.091600	0.089400	0.086700	0.084400	0.081500	0.079400	0.077700	0.076000	0.073900	0.072400	0.071200
20.500000	0.266600	0.266300	0.262700	0.263200	0.262571	0.264100	0.238975	0.166650	0.173900	0.165800	0.158550	0.152100	0.138700	0.129400	0.121500	0.114800	0.109700	0.104400	0.100900	0.097100	0.095100	0.095200	0.096800	0.098500	0.100200	0.101800	0.103400	0.105100	0.107850	0.103300	0.100100	0.096300	0.093800	0.091100	0.088200	0.086400	0.084600	0.082400	0.080500
21.000000	0.274800	0.274100	0.269000	0.272100	0.271886	0.272400	0.271500	0.178800	0.186800	0.178100	0.165500	0.173800	0.155500	0.144600	0.135700	0.128200	0.121800	0.117300	0.113100	0.111100	0.110900	0.112000	0.113200	0.114600	0.116500	0.118300	0.120100	0.122000	0.124100	0.119700	0.114700	0.111400	0.107200	0.104200	0.101600	0.098100	0.096000	0.094100	0.092100
21.500000	0.282500	0.282200	0.280400	0.281100	0.281200	0.280400	0.277700	0.191250	0.199600	0.190650	0.177400	0.179900	0.178500	0.162600	0.152100	0.144000	0.137300	0.131900	0.129100	0.128100	0.128500	0.129500	0.130700	0.132100	0.134200	0.136100	0.138000	0.140000	0.143400	0.138500	0.133000	0.128700	0.123600	0.120300	0.115700	0.113000	0.110300	0.106700	0.104700
22.000000	0.289300	0.290200	0.289600	0.290100	0.289600	0.286400	0.282900	0.203700	0.212400	0.203200	0.189300	0.186000	0.182100	0.185300	0.171800	0.162400	0.155300	0.149900	0.147600	0.146900	0.147300	0.148300	0.149600	0.151600	0.153500	0.155300	0.157300	0.159800	0.162700	0.162400	0.155500	0.148900	0.144100	0.138800	0.133400	0.130100	0.125500	0.122700	0.120100
22.500000	0.297600	0.297500	0.299000	0.299100	0.296300	0.291500	0.257350	0.216250	0.225200	0.215900	0.201600	0.198200	0.194100	0.194200	0.197000	0.184000	0.175800	0.171400	0.168100	0.167600	0.167900	0.169000	0.170900	0.172500	0.174200	0.176000	0.178100	0.181400	0.184000	0.186800	0.175150	0.175000	0.167400	0.160500	0.156100	0.150000	0.146200	0.141100	0.138000
23.000000	0.312100	0.304200	0.308200	0.307500	0.302400	0.229000	0.231800	0.228800	0.238000	0.228600	0.213900	0.210400	0.206100	0.203100	0.203300	0.219000	0.199500	0.195000	0.192600	0.191700	0.191900	0.192800	0.193900	0.195200	0.196800	0.198600	0.201800	0.205100	0.207800	0.211000	0.194800	0.194600	0.198600	0.189100	0.183300	0.176000	0.169000	0.166050	0.159000
23.500000	0.320200	0.317500	0.317100	0.315200	0.314700	0.241300	0.244200	0.241550	0.250800	0.241400	0.226500	0.222900	0.218500	0.215400	0.216400	0.226400	0.212200	0.222800	0.219100	0.217900	0.217700	0.218100	0.218900	0.220000	0.221500	0.223900	0.230100	0.234200	0.219500	0.221150	0.209850	0.209300	0.212550	0.205550	0.201150	0.210000	0.199600	0.191000	0.186700
24.000000	0.326600	0.327000	0.325800	0.322500	0.324300	0.253600	0.256600	0.254300	0.263600	0.254200	0.239100	0.235400	0.230900	0.227700	0.229500	0.233800	0.224900	0.229000	0.227500	0.227100	0.227100	0.227300	0.227700	0.228200	0.228500	0.229600	0.232100	0.233700	0.231200	0.231300	0.224900	0.224000	0.226500	0.222000	0.219000	0.223100	0.218400	0.214200	0.212000
24.500000	0.334600	0.336300	0.334900	0.329700	0.333800	0.266100	0.269250	0.267250	0.276450	0.267150	0.252000	0.248300	0.243650	0.240400	0.242900	0.247750	0.238650	0.243350	0.241950	0.241750	0.241800	0.242150	0.242700	0.243250	0.243300	0.244450	0.247050	0.248750	0.246250	0.246400	0.239900	0.238700	0.241350	0.236750	0.233750	0.237950	0.233150	0.228850	0.226600
25.000000	0.343400	0.345400	0.343400	0.342600	0.343300	0.278600	0.281900	0.280200	0.289300	0.280100	0.264900	0.261200	0.256400	0.253100	0.256300	0.261700	0.252400	0.257700	0.256400	0.256400	0.256500	0.257000	0.257700	0.258300	0.258100	0.259300	0.262000	0.263800	0.261300	0.261500	0.254900	0.253400	0.256200	0.251500	0.248500	0.252800	0.247900	0.243500	0.241200
25.500000	0.318200	0.319700	0.320150	0.319750	0.320250	0.291350	0.294700	0.293250	0.302200	0.293200	0.278050	0.274300	0.269500	0.266150	0.269950	0.275700	0.266350	0.272100	0.270900	0.270950	0.271200	0.271750	0.272550	0.273200	0.272800	0.274050	0.276800	0.278600	0.276150	0.276350	0.269800	0.268150	0.270950	0.266300	0.263250	0.267650	0.262700	0.258250	0.255900
26.000000	0.293000	0.294000	0.296900	0.296900	0.297200	0.304100	0.307500	0.306300	0.315100	0.306300	0.291200	0.287400	0.282600	0.279200	0.283600	0.289700	0.280300	0.286500	0.285400	0.285500	0.285900	0.286500	0.287400	0.288100	0.287500	0.288800	0.291600	0.293400	0.291000	0.291200	0.284700	0.282900	0.285700	0.281100	0.278000	0.282500	0.277500	0.273000	0.270600
26.500000	0.305950	0.306900	0.309850	0.309850	0.310100	0.317100	0.320500	0.319500	0.328150	0.319550	0.304600	0.300800	0.295950	0.292550	0.297400	0.303800	0.294400	0.300900	0.299900	0.300100	0.300500	0.301200	0.302100	0.302900	0.302150	0.303450	0.306250	0.308050	0.305700	0.305900	0.299550	0.297550	0.300350	0.295850	0.292800	0.297250	0.292300	0.287800	0.285450
27.000000	0.318900	0.319800	0.322800	0.322800	0.323000	0.330100	0.333500	0.332700	0.341200	0.332800	0.318000	0.314200	0.309300	0.305900	0.311200	0.317900	0.308500	0.315300	0.314400	0.314700	0.315100	0.315900	0.316800	0.317700	0.316800	0.318100	0.320900	0.322700	0.320400	0.320600	0.314400	0.312200	0.315000	0.310600	0.307600	0.312000	0.307100	0.302600	0.300300
27.500000	0.332150	0.332900	0.335950	0.336000	0.336200	0.343300	0.346750	0.346050	0.354350	0.346200	0.331600	0.327800	0.322900	0.319500	0.325150	0.332050	0.322750	0.329750	0.328850	0.329250	0.329700	0.330500	0.331450	0.332350	0.331350	0.332700	0.335450	0.337200	0.335000	0.335200	0.329100	0.326900	0.329650	0.325300	0.322350	0.326750	0.321900	0.317450	0.315150
28.000000	0.345400	0.346000	0.349100	0.349200	0.349400	0.356500	0.360000	0.359400	0.367500	0.359600	0.345200	0.341400	0.336500	0.333100	0.339100	0.346200	0.337000	0.344200	0.343300	0.343800	0.344300	0.345100	0.346100	0.347000	0.345900	0.347300	0.350000	0.351700	0.349600	0.349800	0.343800	0.341600	0.344300	0.340000	0.337100	0.341500	0.336700	0.332300	0.330000
28.500000	0.358850	0.359450	0.362550	0.362650	0.362850	0.369950	0.373400	0.372950	0.380850	0.373150	0.358950	0.355200	0.350350	0.346950	0.353250	0.360400	0.351350	0.358650	0.357800	0.358350	0.358900	0.359700	0.360700	0.361600	0.360450	0.361800	0.364450	0.366100	0.364100	0.364300	0.358500	0.356250	0.358900	0.354700	0.351900	0.356200	0.351500	0.347200	0.344900
29.000000	0.372300	0.372900	0.376000	0.376100	0.376300	0.383400	0.386800	0.386500	0.394200	0.386700	0.372700	0.369000	0.364200	0.360800	0.367400	0.374600	0.365700	0.373100	0.372300	0.372900	0.373500	0.374300	0.375300	0.376200	0.375000	0.376300	0.378900	0.380500	0.378600	0.378800	0.373200	0.370900	0.373500	0.369400	0.366700	0.370900	0.366300	0.362100	0.359800
29.500000	0.386000	0.386500	0.389600	0.389800	0.389950	0.397000	0.400400	0.400200	0.407650	0.400400	0.386700	0.383000	0.378200	0.374850	0.381650	0.388950	0.380150	0.387550	0.386850	0.387450	0.388050	0.388900	0.389900	0.390750	0.389550	0.390850	0.393350	0.394900	0.393050	0.393300	0.387850	0.385550	0.388100	0.384100	0.381500	0.385550	0.381100	0.377000	0.374750
30.000000	0.399700	0.400100	0.403200	0.403500	0.403600	0.410600	0.414000	0.413900	0.421100	0.414100	0.400700	0.397000	0.392200	0.388900	0.395900	0.403300	0.394600	0.402000	0.401400	0.402000	0.402600	0.403500	0.404500	0.405300	0.404100	0.405400	0.407800	0.409300	0.407500	0.407800	0.402500	0.400200	0.402700	0.398800	0.396300	0.400200	0.395900	0.391900	0.389700
31.000000	0.427600	0.427900	0.431000	0.431300	0.431300	0.438200	0.441500	0.441600	0.448400	0.441900	0.428900	0.425400	0.420700	0.417400	0.424700	0.432100	0.423700	0.431100	0.430600	0.431200	0.431800	0.432700	0.433600	0.434500	0.433300	0.434500	0.436800	0.438200	0.436500	0.436700	0.431800	0.429600	0.431900	0.428300	0.425900	0.429700	0.425600	0.421700	0.419600
32.000000	0.455800	0.456000	0.459100	0.459400	0.459400	0.466200	0.469400	0.469600	0.476000	0.469900	0.457500	0.454100	0.449500	0.446300	0.453800	0.461000	0.453100	0.460300	0.459800	0.460500	0.461100	0.462000	0.462900	0.463700	0.462500	0.463600	0.465800	0.467100	0.465600	0.465800	0.461200	0.459000	0.461300	0.457900	0.455600	0.459200	0.455300	0.451700	0.449700
33.000000	0.484400	0.484500	0.487600	0.487900	0.487900	0.494600	0.497700	0.497900	0.504000	0.498200	0.486400	0.483100	0.478600	0.475500	0.483100	0.490200	0.482600	0.489700	0.489300	0.489900	0.490500	0.491300	0.492300	0.493000	0.491800	0.492900	0.494900	0.496200	0.494800	0.495000	0.490700	0.488600	0.490700	0.487500	0.485400	0.488800	0.485200	0.481700	0.479800
34.000000	0.513400	0.513400	0.516400	0.516800	0.516800	0.523200	0.526200	0.526600	0.532200	0.526900	0.515600	0.512400	0.508100	0.505000	0.512700	0.519600	0.512400	0.519200	0.518900	0.519500	0.520100	0.520900	0.521800	0.522500	0.521300	0.522300	0.524200	0.525400	0.524100	0.524300	0.520300	0.518300	0.520300	0.517300	0.515300	0.518500	0.515100	0.511800	0.510000
35.000000	0.542600	0.542600	0.545500	0.545900	0.545900	0.552200	0.555100	0.555500	0.560800	0.555800	0.545000	0.541900	0.537800	0.534800	0.542500	0.549100	0.542300	0.548900	0.548600	0.549200	0.549800	0.550500	0.551400	0.552100	0.551000	0.551900	0.553700	0.554700	0.553500	0.553700	0.550100	0.548100	0.550000	0.547200	0.545300	0.548300	0.545200	0.542100	0.540400
36.000000	0.572200	0.572100	0.575000	0.575400	0.575300	0.581400	0.584200	0.584600	0.589700	0.584900	0.574700	0.571700	0.567700	0.564800	0.572400	0.578900	0.572400	0.578800	0.578500	0.579100	0.579600	0.580400	0.581200	0.581800	0.580700	0.581600	0.583300	0.584300	0.583200	0.583300	0.579900	0.578100	0.579800	0.577300	0.575500	0.578300	0.575300	0.572400	0.570800
37.000000	0.602000	0.601800	0.604600	0.605100	0.605000	0.610900	0.613600	0.614000	0.618800	0.614300	0.604600	0.601700	0.597800	0.595100	0.602600	0.608800	0.602600	0.608800	0.608500	0.609100	0.609600	0.610300	0.611100	0.611700	0.610700	0.611500	0.613000	0.613900	0.612900	0.613100	0.610000	0.608200	0.609800	0.607400	0.605800	0.608400	0.605600	0.602900	0.601400
38.000000	0.632000	0.631800	0.634500	0.635000	0.634900	0.640600	0.643200	0.643700	0.648100	0.643900	0.634700	0.631900	0.628200	0.625500	0.632900	0.638900	0.633000	0.638900	0.638700	0.639200	0.639800	0.640400	0.641100	0.641700	0.640700	0.641500	0.642900	0.643800	0.642900	0.643000	0.640100	0.638400	0.640000	0.637700	0.636200	0.638600	0.636000	0.633500	0.632100
39.000000	0.662200	0.662000	0.664600	0.665100	0.665000	0.670500	0.673000	0.673500	0.677700	0.673700	0.665000	0.662300	0.658700	0.656100	0.663400	0.669100	0.663600	0.669200	0.669000	0.669500	0.670000	0.670600	0.671300	0.671800	0.670900	0.671700	0.673000	0.673800	0.672900	0.673000	0.670300	0.668800	0.670200	0.668100	0.666700	0.669000	0.666500	0.664100	0.662800
40.000000	0.692500	0.692300	0.694900	0.695300	0.695300	0.700500	0.702900	0.703400	0.707400	0.703700	0.695300	0.692800	0.689300	0.686800	0.693900	0.699400	0.694200	0.699600	0.699400	0.699900	0.700400	0.700900	0.701600	0.702100	0.701200	0.701900	0.703100	0.703900	0.703100	0.703200	0.700700	0.699200	0.700500	0.698600	0.697200	0.699400	0.697100	0.694900	0.693600
41.000000	0.723000	0.722800	0.725300	0.725700	0.725600	0.730700	0.733000	0.733500	0.737300	0.733800	0.725800	0.723400	0.720100	0.717700	0.724600	0.729900	0.724900	0.730000	0.729800	0.730300	0.730800	0.731300	0.731900	0.732400	0.731600	0.732200	0.733400	0.734100	0.733300	0.733500	0.731100	0.729700	0.731000	0.729100	0.727900	0.729900	0.727800	0.725600	0.724500
42.000000	0.753600	0.753400	0.755800	0.756200	0.756100	0.761000	0.763200	0.763700	0.767200	0.764000	0.756400	0.754100	0.750900	0.748600	0.755300	0.760400	0.755700	0.760500	0.760400	0.760900	0.761300	0.761800	0.762400	0.762800	0.762000	0.762600	0.763700	0.764400	0.763700	0.763800	0.761600	0.760300	0.761500	0.759700	0.758500	0.760500	0.758500	0.756500	0.755300
43.000000	0.784300	0.784000	0.786300	0.786800	0.786700	0.791400	0.793500	0.794000	0.797300	0.794300	0.787100	0.784800	0.781700	0.779500	0.786100	0.790900	0.786400	0.791100	0.790900	0.791400	0.791800	0.792300	0.792800	0.793300	0.792500	0.793100	0.794100	0.794700	0.794100	0.794200	0.792100	0.790900	0.792000	0.790400	0.789300	0.791100	0.789200	0.787300	0.786200
44.000000	0.814900	0.814700	0.816900	0.817400	0.817300	0.821800	0.823800	0.824300	0.827400	0.824600	0.817700	0.815600	0.812600	0.810500	0.816800	0.821400	0.817200	0.821700	0.821500	0.822000	0.822400	0.822800	0.823300	0.823700	0.823000	0.823600	0.824500	0.825100	0.824500	0.824600	0.822700	0.821500	0.822500	0.821000	0.819900	0.821700	0.819900	0.818100	0.817100
45.000000	0.845600	0.845300	0.847500	0.847900	0.847800	0.852200	0.854100	0.854600	0.857600	0.854900	0.848300	0.846300	0.843500	0.841400	0.847600	0.852000	0.848000	0.852200	0.852100	0.852500	0.852900	0.853300	0.853800	0.854200	0.853500	0.854000	0.854900	0.855400	0.854900	0.855000	0.853200	0.852000	0.853000	0.851600	0.850600	0.852200	0.850600	0.848900	0.847900
46.000000	0.876200	0.875900	0.878100	0.878500	0.878400	0.882600	0.884400	0.884900	0.887700	0.885200	0.878900	0.877000	0.874300	0.872300	0.878200	0.882500	0.878700	0.882700	0.882600	0.883000	0.883300	0.883800	0.884200	0.884600	0.883900	0.884400	0.885200	0.885700	0.885200	0.885300	0.883600	0.882600	0.883500	0.882100	0.881200	0.882700	0.881200	0.879600	0.878700
47.000000	0.906800	0.906500	0.908600	0.909000	0.908900	0.912900	0.914700	0.915200	0.917800	0.915400	0.909500	0.907600	0.905000	0.903100	0.908800	0.912900	0.909300	0.913100	0.913000	0.913400	0.913700	0.914100	0.914500	0.914900	0.914300	0.914700	0.915500	0.916000	0.915500	0.915600	0.914000	0.913000	0.913900	0.912600	0.911700	0.913200	0.911700	0.910200	0.909400
48.000000	0.937300	0.937000	0.939000	0.939300	0.939300	0.943200	0.944800	0.945300	0.947800	0.945500	0.939900	0.938100	0.935600	0.933800	0.939300	0.943200	0.939800	0.943400	0.943300	0.943700	0.944000	0.944400	0.944800	0.945100	0.944500	0.945000	0.945700	0.946100	0.945700	0.945700	0.944300	0.943300	0.944100	0.943000	0.942100	0.943500	0.942100	0.940700	0.939900
49.000000	0.967600	0.967300	0.969200	0.969600	0.969500	0.973200	0.974900	0.975300	0.977700	0.975500	0.970100	0.968400	0.966000	0.964300	0.969700	0.973300	0.970100	0.973600	0.973500	0.973800	0.974100	0.974500	0.974900	0.975200	0.974600	0.975000	0.975700	0.976100	0.975700	0.975800	0.974400	0.973500	0.974300	0.973200	0.972400	0.973600	0.972300	0.971000	0.970200
50.000000	0.997700	0.997400	0.999300	0.999700	0.999600	1.003200	1.004700	1.005200	1.007400	1.005400	1.000200	0.998600	0.996300	0.994600	0.999800	1.003300	1.000200	1.003600	1.003500	1.003800	1.004100	1.004400	1.004800	1.005100	1.004600	1.004900	1.005600	1.006000	1.005600	1.005700	1.004300	1.003500	1.004200	1.003200	1.002400	1.003600	1.002400	1.001100	1.000400
51.000000	1.027700	1.027400	1.029200	1.029500	1.029400	1.032900	1.034400	1.034800	1.037000	1.035000	1.030100	1.028600	1.026300	1.024700	1.029700	1.033100	1.030200	1.033300	1.033300	1.033600	1.033900	1.034200	1.034500	1.034800	1.034300	1.034700	1.035300	1.035600	1.035300	1.035300	1.034100	1.033300	1.034000	1.033000	1.032300	1.033400	1.032300	1.031100	1.030400
52.000000	1.057400	1.057100	1.058800	1.059200	1.059100	1.062400	1.063800	1.064300	1.066300	1.064400	1.059800	1.058300	1.056100	1.054600	1.059400	1.062600	1.059900	1.062900	1.062800	1.063100	1.063400	1.063700	1.064000	1.064200	1.063800	1.064100	1.064700	1.065000	1.064700	1.064700	1.063600	1.062800	1.063500	1.062500	1.061900	1.063000	1.061900	1.060700	1.060100
53.000000	1.086800	1.086500	1.088200	1.088500	1.088400	1.091600	1.093000	1.093400	1.095300	1.093600	1.089100	1.087700	1.085700	1.084200	1.088800	1.091900	1.089300	1.092100	1.092100	1.092400	1.092600	1.092900	1.093200	1.093400	1.093000	1.093300	1.093900	1.094200	1.093900	1.093900	1.092800	1.092100	1.092700	1.091800	1.091200	1.092200	1.091200	1.090100	1.089500
54.000000	1.115900	1.115600	1.117200	1.117600	1.117500	1.120600	1.121900	1.122300	1.124100	1.122400	1.118200	1.116800	1.114900	1.113400	1.117900	1.120900	1.118300	1.121100	1.121000	1.121300	1.121500	1.121800	1.122100	1.122300	1.121900	1.122200	1.122700	1.123000	1.122700	1.122800	1.121700	1.121000	1.121600	1.120800	1.120200	1.121200	1.120200	1.119200	1.118600
55.000000	1.144700	1.144400	1.146000	1.146300	1.146200	1.149200	1.150400	1.150800	1.152500	1.151000	1.146900	1.145600	1.143700	1.142300	1.146700	1.149500	1.147100	1.149700	1.149600	1.149900	1.150100	1.150400	1.150700	1.150900	1.150500	1.150800	1.151300	1.151500	1.151200	1.151300	1.150300	1.149700	1.150200	1.149400	1.148900	1.149800	1.148900	1.147900	1.147400
56.000000	1.173100	1.172800	1.174300	1.174600	1.174600	1.177400	1.178600	1.179000	1.180600	1.179100	1.175200	1.174000	1.172200	1.170900	1.175000	1.177700	1.175400	1.177900	1.177900	1.178100	1.178400	1.178600	1.178900	1.179100	1.178700	1.179000	1.179400	1.179700	1.179400	1.179500	1.178500	1.177900	1.178400	1.177700	1.177200	1.178000	1.177100	1.176200	1.175700
57.000000	1.201100	1.200800	1.202300	1.202600	1.202500	1.205200	1.206400	1.206700	1.208300	1.206900	1.203200	1.202000	1.200200	1.199000	1.203000	1.205600	1.203400	1.205800	1.205700	1.206000	1.206200	1.206400	1.206600	1.206800	1.206500	1.206700	1.207200	1.207400	1.207200	1.207200	1.206400	1.205800	1.206300	1.205500	1.205100	1.205900	1.205000	1.204200	1.203700
58.000000	1.228700	1.228400	1.229800	1.230100	1.230000	1.232600	1.233700	1.234100	1.235500	1.234200	1.230700	1.229500	1.227800	1.226600	1.230500	1.233000	1.230900	1.233200	1.233100	1.233400	1.233500	1.233800	1.234000	1.234200	1.233800	1.234100	1.234500	1.234700	1.234500	1.234500	1.233700	1.233200	1.233600	1.233000	1.232500	1.233300	1.232500	1.231600	1.231200
59.000000	1.255700	1.255500	1.256800	1.257100	1.257000	1.259500	1.260600	1.260900	1.262300	1.261100	1.257700	1.256600	1.255000	1.253800	1.257500	1.259900	1.257900	1.260100	1.260100	1.260300	1.260500	1.260700	1.260900	1.261100	1.260700	1.261000	1.261400	1.261600	1.261400	1.261400	1.260600	1.260100	1.260500	1.259900	1.259500	1.260200	1.259400	1.258700	1.258200
60.000000	1.282300	1.282000	1.283300	1.283600	1.283500	1.286000	1.287000	1.287300	1.288600	1.287400	1.284200	1.283100	1.281600	1.280500	1.284100	1.286300	1.284400	1.286500	1.286500	1.286700	1.286900	1.287100	1.287300	1.287400	1.287100	1.287400	1.287700	1.287900	1.287700	1.287800	1.287000	1.286500	1.286900	1.286300	1.285900	1.286600	1.285900	1.285200	1.284700
61.000000	1.308300	1.308100	1.309300	1.309600	1.309500	1.311900	1.312800	1.313100	1.314400	1.313300	1.310200	1.309200	1.307700	1.306600	1.310100	1.312200	1.310400	1.312400	1.312400	1.312600	1.312700	1.312900	1.313100	1.313300	1.313000	1.313200	1.313600	1.313800	1.313600	1.313600	1.312900	1.312400	1.312800	1.312200	1.311800	1.312500	1.311800	1.311100	1.310700
62.000000	1.333800	1.333500	1.334800	1.335000	1.334900	1.337200	1.338100	1.338400	1.339600	1.338500	1.335600	1.334600	1.333200	1.332200	1.335500	1.337600	1.335800	1.337700	1.337700	1.337900	1.338100	1.338200	1.338400	1.338600	1.338300	1.338500	1.338800	1.339000	1.338800	1.338900	1.338200	1.337700	1.338100	1.337600	1.337200	1.337800	1.337200	1.336500	1.336100
63.000000	1.358700	1.358400	1.359600	1.359800	1.359800	1.361900	1.362800	1.363100	1.364300	1.363200	1.360400	1.359500	1.358100	1.357100	1.360300	1.362300	1.360700	1.362500	1.362400	1.362600	1.362800	1.362900	1.363100	1.363300	1.363000	1.363200	1.363500	1.363700	1.363500	1.363500	1.362900	1.362500	1.362800	1.362300	1.362000	1.362600	1.361900	1.361300	1.360900
64.000000	1.382900	1.382700	1.383800	1.384000	1.384000	1.386000	1.386900	1.387200	1.388300	1.387300	1.384600	1.383700	1.382400	1.381400	1.384500	1.386400	1.384900	1.386600	1.386600	1.386700	1.386900	1.387000	1.387200	1.387300	1.387100	1.387300	1.387600	1.387700	1.387600	1.387600	1.387000	1.386600	1.386900	1.386400	1.386100	1.386700	1.386100	1.385500	1.385100
65.000000	1.406500	1.406300	1.407400	1.407600	1.407500	1.409500	1.410300	1.410600	1.411700	1.410700	1.408100	1.407300	1.406000	1.405100	1.408100	1.409900	1.408400	1.410000	1.410000	1.410200	1.410300	1.410500	1.410600	1.410800	1.410500	1.410700	1.411000	1.411200	1.411000	1.411000	1.410500	1.410100	1.410400	1.409900	1.409600	1.410100	1.409600	1.409000	1.408700
66.000000	1.429400	1.429200	1.430200	1.430500	1.430400	1.432300	1.433100	1.433400	1.434400	1.433400	1.431000	1.430200	1.429000	1.428100	1.430900	1.432700	1.431200	1.432800	1.432800	1.433000	1.433100	1.433200	1.433400	1.433500	1.433300	1.433500	1.433700	1.433900	1.433700	1.433800	1.433200	1.432800	1.433200	1.432700	1.432400	1.432900	1.432400	1.431800	1.431500
67.000000	1.451600	1.451400	1.452400	1.452600	1.452600	1.454400	1.455100	1.455400	1.456400	1.455500	1.453100	1.452300	1.451200	1.450300	1.453100	1.454700	1.453400	1.454900	1.454900	1.455000	1.455200	1.455300	1.455400	1.455600	1.455300	1.455500	1.455800	1.455900	1.455800	1.455800	1.455300	1.454900	1.455200	1.454800	1.454500	1.455000	1.454500	1.454000	1.453700
68.000000	1.473100	1.472900	1.473800	1.474000	1.474000	1.475700	1.476500	1.476700	1.477600	1.476800	1.474500	1.473800	1.472700	1.471900	1.474500	1.476100	1.474800	1.476200	1.476200	1.476400	1.476500	1.476600	1.476800	1.476900	1.476700	1.476800	1.477100	1.477200	1.477100	1.477100	1.476600	1.476300	1.476500	1.476100	1.475900	1.476300	1.475800	1.475300	1.475100
69.000000	1.493800	1.493600	1.494500	1.494700	1.494600	1.496300	1.497000	1.497300	1.498100	1.497300	1.495200	1.494500	1.493400	1.492600	1.495200	1.496700	1.495500	1.496800	1.496800	1.496900	1.497100	1.497200	1.497300	1.497400	1.497200	1.497400	1.497600	1.497700	1.497600	1.497600	1.497200	1.496800	1.497100	1.496700	1.496500	1.496900	1.496500	1.496000	1.495700
70.000000	1.513700	1.513500	1.514400	1.514600	1.514500	1.516100	1.516800	1.517000	1.517900	1.517100	1.515100	1.514400	1.513300	1.512600	1.515000	1.516500	1.515300	1.516600	1.516600	1.516700	1.516900	1.517000	1.517100	1.517200	1.517000	1.517100	1.517400	1.517500	1.517400	1.517400	1.517000	1.516600	1.516900	1.516500	1.516300	1.516700	1.516300	1.515800	1.515600
71.000000	1.532800	1.532600	1.533500	1.533600	1.533600	1.535200	1.535800	1.536000	1.536800	1.536100	1.534100	1.533400	1.532500	1.531700	1.534100	1.535500	1.534400	1.535600	1.535600	1.535700	1.535800	1.536000	1.536100	1.536200	1.536000	1.536100	1.536300	1.536500	1.536300	1.536400	1.535900	1.535600	1.535900	1.535500	1.535300	1.535700	1.535300	1.534800	1.534600
72.000000	1.551100	1.550900	1.551700	1.551900	1.551800	1.553300	1.553900	1.554200	1.554900	1.554200	1.552300	1.551700	1.550800	1.550100	1.552300	1.553700	1.552600	1.553800	1.553800	1.553900	1.554000	1.554100	1.554200	1.554300	1.554100	1.554300	1.554500	1.554600	1.554500	1.554500	1.554100	1.553800	1.554000	1.553700	1.553500	1.553900	1.553500	1.553100	1.552800
73.000000	1.568500	1.568300	1.569100	1.569300	1.569200	1.570700	1.571200	1.571400	1.572200	1.571500	1.569700	1.569100	1.568200	1.567500	1.569700	1.571000	1.569900	1.571100	1.571100	1.571200	1.571300	1.571400	1.571500	1.571600	1.571400	1.571600	1.571700	1.571900	1.571700	1.571800	1.571400	1.571100	1.571300	1.571000	1.570800	1.571200	1.570800	1.570400	1.570200
74.000000	1.585000	1.584800	1.585600	1.585800	1.585700	1.587100	1.587700	1.587900	1.588600	1.587900	1.586200	1.585600	1.584700	1.584100	1.586200	1.587400	1.586400	1.587500	1.587500	1.587600	1.587700	1.587800	1.587900	1.588000	1.587900	1.588000	1.588200	1.588300	1.588200	1.588200	1.587800	1.587600	1.587800	1.587500	1.587300	1.587600	1.587200	1.586900	1.586700
75.000000	1.600700	1.600500	1.601200	1.601400	1.601300	1.602700	1.603200	1.603400	1.604100	1.603500	1.601800	1.601200	1.600400	1.599800	1.601800	1.603000	1.602000	1.603100	1.603100	1.603200	1.603300	1.603400	1.603500	1.603500	1.603400	1.603500	1.603700	1.603800	1.603700	1.603700	1.603300	1.603100	1.603300	1.603000	1.602800	1.603200	1.602800	1.602500	1.602200
76.000000	1.615400	1.615200	1.615900	1.616100	1.616000	1.617300	1.617800	1.618000	1.618600	1.618100	1.616500	1.615900	1.615100	1.614600	1.616500	1.617600	1.616700	1.617700	1.617700	1.617800	1.617900	1.618000	1.618100	1.618200	1.618000	1.618100	1.618300	1.618400	1.618300	1.618300	1.618000	1.617700	1.617900	1.617700	1.617500	1.617800	1.617500	1.617100	1.616900
77.000000	1.629200	1.629000	1.629700	1.629800	1.629800	1.631000	1.631500	1.631700	1.632300	1.631800	1.630200	1.629700	1.629000	1.628400	1.630300	1.631300	1.630500	1.631400	1.631400	1.631500	1.631600	1.631700	1.631800	1.631800	1.631700	1.631800	1.632000	1.632100	1.632000	1.632000	1.631700	1.631400	1.631600	1.631400	1.631200	1.631500	1.631200	1.630900	1.630700
78.000000	1.642000	1.641900	1.642500	1.642700	1.642600	1.643800	1.644300	1.644400	1.645000	1.644500	1.643100	1.642500	1.641800	1.641300	1.643100	1.644100	1.643300	1.644200	1.644200	1.644300	1.644300	1.644400	1.644500	1.644600	1.644500	1.644600	1.644700	1.644800	1.644700	1.644700	1.644400	1.644200	1.644400	1.644100	1.644000	1.644300	1.644000	1.643600	1.643500
79.000000	1.653900	1.653700	1.654400	1.654500	1.654500	1.655600	1.656100	1.656200	1.656800	1.656300	1.654900	1.654400	1.653700	1.653200	1.654900	1.655900	1.655100	1.656000	1.656000	1.656100	1.656100	1.656200	1.656300	1.656400	1.656200	1.656300	1.656500	1.656600	1.656500	1.656500	1.656200	1.656000	1.656200	1.655900	1.655800	1.656100	1.655800	1.655500	1.655300
80.000000	1.664800	1.664700	1.665300	1.665400	1.665400	1.666500	1.666900	1.667000	1.667600	1.667100	1.665800	1.665300	1.664600	1.664100	1.665800	1.666700	1.666000	1.666800	1.666800	1.666900	1.667000	1.667000	1.667100	1.667200	1.667100	1.667100	1.667300	1.667400	1.667300	1.667300	1.667000	1.666800	1.667000	1.666800	1.666600	1.666900	1.666600	1.666300	1.666200
81.000000	1.674700	1.674600	1.675200	1.675300	1.675300	1.676300	1.676700	1.676900	1.677400	1.676900	1.675600	1.675200	1.674600	1.674100	1.675700	1.676600	1.675900	1.676700	1.676600	1.676700	1.676800	1.676900	1.676900	1.677000	1.676900	1.677000	1.677100	1.677200	1.677100	1.677100	1.676900	1.676700	1.676800	1.676600	1.676500	1.676700	1.676500	1.676200	1.676000
82.000000	1.683600	1.683500	1.684100	1.684200	1.684100	1.685200	1.685600	1.685700	1.686200	1.685700	1.684500	1.684100	1.683500	1.683000	1.684500	1.685400	1.684700	1.685500	1.685500	1.685600	1.685600	1.685700	1.685800	1.685800	1.685700	1.685800	1.685900	1.686000	1.685900	1.685900	1.685700	1.685500	1.685700	1.685500	1.685300	1.685500	1.685300	1.685000	1.684900
83.000000	1.691500	1.691400	1.691900	1.692100	1.692000	1.693000	1.693400	1.693500	1.694000	1.693600	1.692400	1.692000	1.691400	1.691000	1.692400	1.693200	1.692600	1.693300	1.693300	1.693400	1.693400	1.693500	1.693600	1.693600	1.693500	1.693600	1.693700	1.693800	1.693700	1.693700	1.693500	1.693300	1.693500	1.693300	1.693100	1.693400	1.693100	1.692900	1.692800
84.000000	1.698400	1.698300	1.698800	1.698900	1.698900	1.699800	1.700200	1.700300	1.700800	1.700400	1.699200	1.698800	1.698300	1.697900	1.699300	1.700100	1.699400	1.700100	1.700100	1.700200	1.700300	1.700300	1.700400	1.700400	1.700300	1.700400	1.700500	1.700600	1.700500	1.700500	1.700300	1.700100	1.700300	1.700100	1.700000	1.700200	1.700000	1.699700	1.699600
85.000000	1.704300	1.704100	1.704600	1.704800	1.704700	1.705600	1.706000	1.706100	1.706500	1.706100	1.705100	1.704700	1.704100	1.703700	1.705100	1.705800	1.705200	1.705900	1.705900	1.706000	1.706000	1.706100	1.706200	1.706200	1.706100	1.706200	1.706300	1.706300	1.706300	1.706300	1.706100	1.705900	1.706100	1.705900	1.705700	1.706000	1.705700	1.705500	1.705400
86.000000	1.709100	1.708900	1.709400	1.709500	1.709500	1.710400	1.710700	1.710800	1.711200	1.710900	1.709800	1.709500	1.709000	1.708600	1.709900	1.710600	1.710000	1.710700	1.710700	1.710700	1.710800	1.710800	1.710900	1.710900	1.710800	1.710900	1.711000	1.711100	1.711000	1.711000	1.710800	1.710700	1.710800	1.710600	1.710500	1.710700	1.710500	1.710300	1.710200
87.000000	1.712800	1.712700	1.713200	1.713300	1.713300	1.714100	1.714400	1.714500	1.714900	1.714600	1.713600	1.713200	1.712700	1.712400	1.713600	1.714300	1.713700	1.714400	1.714400	1.714400	1.714500	1.714500	1.714600	1.714600	1.714500	1.714600	1.714700	1.714800	1.714700	1.714700	1.714500	1.714400	1.714500	1.714300	1.714200	1.714400	1.714200	1.714000	1.713900
88.000000	1.715600	1.715400	1.715900	1.716000	1.716000	1.716700	1.717100	1.717200	1.717500	1.717200	1.716300	1.715900	1.715500	1.715100	1.716300	1.717000	1.716400	1.717000	1.717000	1.717100	1.717100	1.717200	1.717200	1.717300	1.717200	1.717200	1.717300	1.717400	1.717300	1.717300	1.717200	1.717000	1.717100	1.717000	1.716900	1.717100	1.716900	1.716700	1.716600
89.000000	1.717200	1.717100	1.717500	1.717600	1.717600	1.718400	1.718700	1.718800	1.719100	1.718800	1.717900	1.717600	1.717100	1.716800	1.717900	1.718600	1.718100	1.718600	1.718600	1.718700	1.718700	1.718800	1.718800	1.718900	1.718800	1.718800	1.718900	1.719000	1.718900	1.718900	1.718800	1.718600	1.718700	1.718600	1.718500	1.718700	1.718500	1.718300	1.718200
90.000000	1.717800	1.717700	1.718100	1.718200	1.718200	1.718900	1.719200	1.719300	1.719700	1.719400	1.718500	1.718200	1.717800	1.717400	1.718500	1.719100	1.718600	1.719200	1.719200	1.719200	1.719300	1.719300	1.719400	1.719400	1.719300	1.719400	1.719500	1.719500	1.719500	1.719500	1.719300	1.719200	1.719300	1.719200	1.719100	1.719200	1.719100	1.718900	1.718800
91.000000	1.717400	1.717300	1.717700	1.717800	1.717800	1.718500	1.718700	1.718800	1.719100	1.718900	1.718000	1.717700	1.717300	1.717000	1.718100	1.718600	1.718200	1.718700	1.718700	1.718700	1.718800	1.718800	1.718900	1.718900	1.718800	1.718900	1.719000	1.719000	1.719000	1.719000	1.718800	1.718700	1.718800	1.718700	1.718600	1.718700	1.718600	1.718400	1.718300
92.000000	1.715900	1.715800	1.716200	1.716300	1.716300	1.716900	1.717200	1.717300	1.717600	1.717300	1.716500	1.716200	1.715800	1.715500	1.716500	1.717100	1.716700	1.717200	1.717200	1.717200	1.717200	1.717300	1.717300	1.717400	1.717300	1.717300	1.717400	1.717500	1.717400	1.717400	1.717300	1.717200	1.717300	1.717100	1.717000	1.717200	1.717000	1.716900	1.716800
93.000000	1.713400	1.713300	1.713600	1.713700	1.713700	1.714300	1.714600	1.714700	1.715000	1.714700	1.714000	1.713700	1.713300	1.713000	1.714000	1.714500	1.714100	1.714600	1.714600	1.714600	1.714700	1.714700	1.714700	1.714800	1.714700	1.714800	1.714800	1.714900	1.714800	1.714800	1.714700	1.714600	1.714700	1.714500	1.714500	1.714600	1.714500	1.714300	1.714200
94.000000	1.709800	1.709700	1.710100	1.710100	1.710100	1.710700	1.711000	1.711000	1.711300	1.711100	1.710400	1.710100	1.709700	1.709400	1.710400	1.710900	1.710500	1.710900	1.710900	1.711000	1.711000	1.711100	1.711100	1.711100	1.711100	1.711100	1.711200	1.711200	1.711200	1.711200	1.711100	1.710900	1.711000	1.710900	1.710800	1.711000	1.710800	1.710700	1.710600
95.000000	1.705200	1.705100	1.705400	1.705500	1.705500	1.706100	1.706300	1.706400	1.706600	1.706400	1.705700	1.705500	1.705100	1.704800	1.705700	1.706200	1.705800	1.706300	1.706300	1.706300	1.706300	1.706400	1.706400	1.706400	1.706400	1.706400	1.706500	1.706500	1.706500	1.706500	1.706400	1.706300	1.706400	1.706200	1.706200	1.706300	1.706200	1.706000	1.705900
96.000000	1.699500	1.699400	1.699700	1.699800	1.699800	1.700400	1.700600	1.700700	1.700900	1.700700	1.700000	1.699800	1.699400	1.699200	1.700000	1.700500	1.700100	1.700600	1.700600	1.700600	1.700600	1.700700	1.700700	1.700700	1.700700	1.700700	1.700800	1.700800	1.700800	1.700800	1.700700	1.700600	1.700600	1.700500	1.700500	1.700600	1.700500	1.700300	1.700300
97.000000	1.692800	1.692700	1.693000	1.693100	1.693100	1.693600	1.693800	1.693900	1.694200	1.693900	1.693300	1.693100	1.692800	1.692500	1.693300	1.693800	1.693400	1.693800	1.693800	1.693900	1.693900	1.693900	1.694000	1.694000	1.693900	1.694000	1.694000	1.694100	1.694000	1.694000	1.693900	1.693800	1.693900	1.693800	1.693700	1.693900	1.693700	1.693600	1.693500
98.000000	1.685100	1.685000	1.685300	1.685400	1.685400	1.685900	1.686100	1.686200	1.686400	1.686200	1.685600	1.685400	1.685100	1.684800	1.685600	1.686000	1.685700	1.686100	1.686100	1.686100	1.686100	1.686200	1.686200	1.686200	1.686200	1.686200	1.686300	1.686300	1.686300	1.686300	1.686200	1.686100	1.686100	1.686100	1.686000	1.686100	1.686000	1.685900	1.685800
99.000000	1.676400	1.676300	1.676600	1.676700	1.676600	1.677100	1.677300	1.677400	1.677600	1.677400	1.676800	1.676600	1.676300	1.676100	1.676900	1.677300	1.677000	1.677300	1.677300	1.677300	1.677400	1.677400	1.677400	1.677500	1.677400	1.677400	1.677500	1.677500	1.677500	1.677500	1.677400	1.677300	1.677400	1.677300	1.677200	1.677300	1.677200	1.677100	1.677000
100.000000	1.666700	1.666600	1.666900	1.666900	1.666900	1.667400	1.667600	1.667600	1.667800	1.667600	1.667100	1.666900	1.666600	1.666400	1.667100	1.667500	1.667200	1.667600	1.667500	1.667600	1.667600	1.667600	1.667700	1.667700	1.667600	1.667700	1.667700	1.667800	1.667700	1.667700	1.667600	1.667600	1.667600	1.667500	1.667500	1.667600	1.667500	1.667400	1.667300
101.000000	1.656000	1.655900	1.656100	1.656200	1.656200	1.656600	1.656800	1.656900	1.657100	1.656900	1.656400	1.656200	1.655900	1.655700	1.656400	1.656800	1.656500	1.656800	1.656800	1.656800	1.656900	1.656900	1.656900	1.656900	1.656900	1.656900	1.657000	1.657000	1.657000	1.657000	1.656900	1.656800	1.656900	1.656800	1.656700	1.656800	1.656700	1.656600	1.656600
102.000000	1.644300	1.644200	1.644500	1.644500	1.644500	1.644900	1.645100	1.645200	1.645300	1.645200	1.644700	1.644500	1.644200	1.644000	1.644700	1.645000	1.644800	1.645100	1.645100	1.645100	1.645100	1.645200	1.645200	1.645200	1.645200	1.645200	1.645300	1.645300	1.645300	1.645300	1.645200	1.645100	1.645200	1.645100	1.645000	1.645100	1.645000	1.644900	1.644900
103.000000	1.631600	1.631600	1.631800	1.631900	1.631800	1.632300	1.632400	1.632500	1.632700	1.632500	1.632000	1.631800	1.631600	1.631400	1.632000	1.632400	1.632100	1.632400	1.632400	1.632400	1.632500	1.632500	1.632500	1.632500	1.632500	1.632500	1.632600	1.632600	1.632600	1.632600	1.632500	1.632400	1.632500	1.632400	1.632300	1.632400	1.632300	1.632200	1.632200
104.000000	1.618100	1.618000	1.618200	1.618300	1.618200	1.618600	1.618800	1.618800	1.619000	1.618900	1.618400	1.618300	1.618000	1.617800	1.618400	1.618800	1.618500	1.618800	1.618800	1.618800	1.618800	1.618900	1.618900	1.618900	1.618900	1.618900	1.618900	1.619000	1.618900	1.618900	1.618900	1.618800	1.618800	1.618800	1.618700	1.618800	1.618700	1.618600	1.618600
105.000000	1.603500	1.603500	1.603700	1.603700	1.603700	1.604100	1.604200	1.604300	1.604500	1.604300	1.603900	1.603700	1.603500	1.603300	1.603900	1.604200	1.604000	1.604200	1.604200	1.604300	1.604300	1.604300	1.604300	1.604400	1.604300	1.604300	1.604400	1.604400	1.604400	1.604400	1.604300	1.604300	1.604300	1.604200	1.604200	1.604300	1.604200	1.604100	1.604000
106.000000	1.588100	1.588100	1.588300	1.588300	1.588300	1.588700	1.588800	1.588800	1.589000	1.588900	1.588400	1.588300	1.588100	1.587900	1.588500	1.588800	1.588500	1.588800	1.588800	1.588800	1.588800	1.588900	1.588900	1.588900	1.588900	1.588900	1.588900	1.588900	1.588900	1.588900	1.588900	1.588800	1.588800	1.588800	1.588700	1.588800	1.588700	1.588700	1.588600
107.000000	1.571800	1.571700	1.571900	1.572000	1.572000	1.572300	1.572500	1.572500	1.572600	1.572500	1.572100	1.572000	1.571800	1.571600	1.572100	1.572400	1.572200	1.572400	1.572400	1.572500	1.572500	1.572500	1.572500	1.572600	1.572500	1.572500	1.572600	1.572600	1.572600	1.572600	1.572500	1.572500	1.572500	1.572400	1.572400	1.572500	1.572400	1.572300	1.572300
108.000000	1.554600	1.554600	1.554800	1.554800	1.554800	1.555100	1.555200	1.555300	1.555400	1.555300	1.554900	1.554800	1.554600	1.554400	1.554900	1.555200	1.555000	1.555200	1.555200	1.555300	1.555300	1.555300	1.555300	1.555300	1.555300	1.555300	1.555400	1.555400	1.555400	1.555400	1.555300	1.555200	1.555300	1.555200	1.555200	1.555300	1.555200	1.555100	1.555100
109.000000	1.536600	1.536500	1.536700	1.536800	1.536700	1.537100	1.537200	1.537200	1.537400	1.537200	1.536900	1.536800	1.536600	1.536400	1.536900	1.537200	1.537000	1.537200	1.537200	1.537200	1.537200	1.537200	1.537300	1.537300	1.537200	1.537300	1.537300	1.537300	1.537300	1.537300	1.537200	1.537200	1.537200	1.537200	1.537100	1.537200	1.537100	1.537100	1.537000
110.000000	1.517700	1.517700	1.517900	1.517900	1.517900	1.518200	1.518300	1.518300	1.518500	1.518400	1.518000	1.517900	1.517700	1.517600	1.518000	1.518300	1.518100	1.518300	1.518300	1.518300	1.518300	1.518400	1.518400	1.518400	1.518400	1.518400	1.518400	1.518400	1.518400	1.518400	1.518400	1.518300	1.518300	1.518300	1.518300	1.518300	1.518300	1.518200	1.518100
111.000000	1.498100	1.498000	1.498200	1.498200	1.498200	1.498500	1.498600	1.498700	1.498800	1.498700	1.498300	1.498200	1.498100	1.497900	1.498400	1.498600	1.498400	1.498600	1.498600	1.498600	1.498600	1.498700	1.498700	1.498700	1.498700	1.498700	1.498700	1.498700	1.498700	1.498700	1.498700	1.498600	1.498700	1.498600	1.498600	1.498600	1.498600	1.498500	1.498500
112.000000	1.477600	1.477600	1.477800	1.477800	1.477800	1.478000	1.478100	1.478200	1.478300	1.478200	1.477900	1.477800	1.477600	1.477500	1.477900	1.478100	1.478000	1.478100	1.478100	1.478200	1.478200	1.478200	1.478200	1.478200	1.478200	1.478200	1.478200	1.478300	1.478200	1.478300	1.478200	1.478200	1.478200	1.478100	1.478100	1.478200	1.478100	1.478000	1.478000
113.000000	1.456400	1.456400	1.456600	1.456600	1.456600	1.456800	1.456900	1.457000	1.457100	1.457000	1.456700	1.456600	1.456400	1.456300	1.456700	1.456900	1.456800	1.456900	1.456900	1.457000	1.457000	1.457000	1.457000	1.457000	1.457000	1.457000	1.457000	1.457000	1.457000	1.457000	1.457000	1.456900	1.457000	1.456900	1.456900	1.456900	1.456900	1.456800	1.456800
114.000000	1.434500	1.434500	1.434600	1.434700	1.434700	1.434900	1.435000	1.435000	1.435100	1.435000	1.434800	1.434700	1.434500	1.434400	1.434800	1.435000	1.434800	1.435000	1.435000	1.435000	1.435000	1.435000	1.435100	1.435100	1.435000	1.435100	1.435100	1.435100	1.435100	1.435100	1.435000	1.435000	1.435000	1.435000	1.435000	1.435000	1.435000	1.434900	1.434900
115.000000	1.411900	1.411900	1.412000	1.412000	1.412000	1.412300	1.412400	1.412400	1.412500	1.412400	1.412100	1.412000	1.411900	1.411800	1.412100	1.412300	1.412200	1.412400	1.412400	1.412400	1.412400	1.412400	1.412400	1.412400	1.412400	1.412400	1.412400	1.412500	1.412400	1.412400	1.412400	1.412400	1.412400	1.412300	1.412300	1.412400	1.412300	1.412300	1.412200
116.000000	1.388600	1.388600	1.388700	1.388700	1.388700	1.389000	1.389000	1.389100	1.389200	1.389100	1.388800	1.388700	1.388600	1.388500	1.388800	1.389000	1.388900	1.389000	1.389000	1.389100	1.389100	1.389100	1.389100	1.389100	1.389100	1.389100	1.389100	1.389100	1.389100	1.389100	1.389100	1.389000	1.389100	1.389000	1.389000	1.389100	1.389000	1.389000	1.388900
117.000000	1.364700	1.364600	1.364800	1.364800	1.364800	1.365000	1.365100	1.365100	1.365200	1.365100	1.364900	1.364800	1.364700	1.364600	1.364900	1.365100	1.364900	1.365100	1.365100	1.365100	1.365100	1.365100	1.365100	1.365100	1.365100	1.365100	1.365200	1.365200	1.365200	1.365200	1.365100	1.365100	1.365100	1.365100	1.365100	1.365100	1.365100	1.365000	1.365000
118.000000	1.340100	1.340100	1.340200	1.340200	1.340200	1.340400	1.340500	1.340500	1.340600	1.340600	1.340300	1.340200	1.340100	1.340000	1.340300	1.340500	1.340400	1.340500	1.340500	1.340500	1.340500	1.340600	1.340600	1.340600	1.340600	1.340600	1.340600	1.340600	1.340600	1.340600	1.340600	1.340500	1.340500	1.340500	1.340500	1.340500	1.340500	1.340400	1.340400
119.000000	1.315000	1.315000	1.315100	1.315100	1.315100	1.315300	1.315400	1.315400	1.315500	1.315400	1.315200	1.315100	1.315000	1.314900	1.315200	1.315300	1.315200	1.315400	1.315400	1.315400	1.315400	1.315400	1.315400	1.315400	1.315400	1.315400	1.315400	1.315400	1.315400	1.315400	1.315400	1.315400	1.315400	1.315400	1.315300	1.315400	1.315300	1.315300	1.315300
120.000000	1.289300	1.289300	1.289400	1.289400	1.289400	1.289600	1.289700	1.289700	1.289800	1.289700	1.289500	1.289400	1.289300	1.289200	1.289500	1.289600	1.289500	1.289700	1.289700	1.289700	1.289700	1.289700	1.289700	1.289700	1.289700	1.289700	1.289700	1.289700	1.289700	1.289700	1.289700	1.289700	1.289700	1.289700	1.289600	1.289700	1.289600	1.289600	1.289600
121.000000	1.263100	1.263100	1.263200	1.263200	1.263200	1.263400	1.263400	1.263500	1.263500	1.263500	1.263300	1.263200	1.263100	1.263000	1.263300	1.263400	1.263300	1.263400	1.263400	1.263400	1.263500	1.263500	1.263500	1.263500	1.263500	1.263500	1.263500	1.263500	1.263500	1.263500	1.263500	1.263400	1.263500	1.263400	1.263400	1.263400	1.263400	1.263400	1.263300
122.000000	1.236400	1.236400	1.236500	1.236500	1.236500	1.236700	1.236700	1.236700	1.236800	1.236700	1.236600	1.236500	1.236400	1.236300	1.236600	1.236700	1.236600	1.236700	1.236700	1.236700	1.236700	1.236800	1.236800	1.236800	1.236800	1.236800	1.236800	1.236800	1.236800	1.236800	1.236700	1.236700	1.236700	1.236700	1.236700	1.236700	1.236700	1.236700	1.236600
123.000000	1.209300	1.209200	1.209300	1.209300	1.209300	1.209500	1.209500	1.209600	1.209600	1.209600	1.209400	1.209300	1.209300	1.209200	1.209400	1.209500	1.209400	1.209600	1.209600	1.209600	1.209600	1.209600	1.209600	1.209600	1.209600	1.209600	1.209600	1.209600	1.209600	1.209600	1.209600	1.209600	1.209600	1.209500	1.209500	1.209600	1.209500	1.209500	1.209500
124.000000	1.181700	1.181700	1.181700	1.181800	1.181800	1.181900	1.182000	1.182000	1.182000	1.182000	1.181800	1.181800	1.181700	1.181600	1.181800	1.181900	1.181900	1.182000	1.182000	1.182000	1.182000	1.182000	1.182000	1.182000	1.182000	1.182000	1.182000	1.182000	1.182000	1.182000	1.182000	1.182000	1.182000	1.182000	1.181900	1.182000	1.181900	1.181900	1.181900
125.000000	1.153700	1.153700	1.153800	1.153800	1.153800	1.153900	1.154000	1.154000	1.154100	1.154000	1.153900	1.153800	1.153700	1.153700	1.153900	1.154000	1.153900	1.154000	1.154000	1.154000	1.154000	1.154000	1.154000	1.154000	1.154000	1.154000	1.154000	1.154000	1.154000	1.154000	1.154000	1.154000	1.154000	1.154000	1.154000	1.154000	1.154000	1.153900	1.153900
126.000000	1.125400	1.125400	1.125500	1.125500	1.125500	1.125600	1.125600	1.125700	1.125700	1.125700	1.125500	1.125500	1.125400	1.125300	1.125500	1.125600	1.125600	1.125600	1.125600	1.125700	1.125700	1.125700	1.125700	1.125700	1.125700	1.125700	1.125700	1.125700	1.125700	1.125700	1.125700	1.125600	1.125700	1.125600	1.125600	1.125700	1.125600	1.125600	1.125600
127.000000	1.096800	1.096700	1.096800	1.096800	1.096800	1.096900	1.097000	1.097000	1.097100	1.097000	1.096900	1.096800	1.096800	1.096700	1.096900	1.097000	1.096900	1.097000	1.097000	1.097000	1.097000	1.097000	1.097000	1.097000	1.097000	1.097000	1.097000	1.097000	1.097000	1.097000	1.097000	1.097000	1.097000	1.097000	1.097000	1.097000	1.097000	1.096900	1.096900
128.000000	1.067800	1.067800	1.067900	1.067900	1.067900	1.068000	1.068100	1.068100	1.068100	1.068100	1.067900	1.067900	1.067800	1.067800	1.068000	1.068000	1.068000	1.068100	1.068100	1.068100	1.068100	1.068100	1.068100	1.068100	1.068100	1.068100	1.068100	1.068100	1.068100	1.068100	1.068100	1.068100	1.068100	1.068100	1.068000	1.068100	1.068000	1.068000	1.068000
129.000000	1.038700	1.038600	1.038700	1.038700	1.038700	1.038800	1.038900	1.038900	1.038900	1.038900	1.038800	1.038700	1.038700	1.038600	1.038800	1.038900	1.038800	1.038900	1.038900	1.038900	1.038900	1.038900	1.038900	1.038900	1.038900	1.038900	1.038900	1.038900	1.038900	1.038900	1.038900	1.038900	1.038900	1.038900	1.038900	1.038900	1.038900	1.038800	1.038800
130.000000	1.009300	1.009300	1.009300	1.009300	1.009300	1.009400	1.009500	1.009500	1.009500	1.009500	1.009400	1.009300	1.009300	1.009200	1.009400	1.009500	1.009400	1.009500	1.009500	1.009500	1.009500	1.009500	1.009500	1.009500	1.009500	1.009500	1.009500	1.009500	1.009500	1.009500	1.009500	1.009500	1.009500	1.009500	1.009500	1.009500	1.009500	1.009400	1.009400
131.000000	0.979700	0.979700	0.979700	0.979800	0.979800	0.979900	0.979900	0.979900	0.979900	0.979900	0.979800	0.979800	0.979700	0.979700	0.979800	0.979900	0.979800	0.979900	0.979900	0.979900	0.979900	0.979900	0.979900	0.979900	0.979900	0.979900	0.979900	0.979900	0.979900	0.979900	0.979900	0.979900	0.979900	0.979900	0.979900	0.979900	0.979900	0.979900	0.979800
132.000000	0.950000	0.950000	0.950000	0.950000	0.950000	0.950100	0.950200	0.950200	0.950200	0.950200	0.950100	0.950000	0.950000	0.950000	0.950100	0.950200	0.950100	0.950200	0.950200	0.950200	0.950200	0.950200	0.950200	0.950200	0.950200	0.950200	0.950200	0.950200	0.950200	0.950200	0.950200	0.950200	0.950200	0.950200	0.950200	0.950200	0.950200	0.950100	0.950100
133.000000	0.920200	0.920200	0.920200	0.920200	0.920200	0.920300	0.920300	0.920400	0.920400	0.920400	0.920300	0.920200	0.920200	0.920100	0.920300	0.920300	0.920300	0.920300	0.920300	0.920400	0.920400	0.920400	0.920400	0.920400	0.920400	0.920400	0.920400	0.920400	0.920400	0.920400	0.920400	0.920400	0.920400	0.920300	0.920300	0.920400	0.920300	0.920300	0.920300
134.000000	0.890300	0.890300	0.890300	0.890300	0.890300	0.890400	0.890500	0.890500	0.890500	0.890500	0.890400	0.890300	0.890300	0.890300	0.890400	0.890500	0.890400	0.890500	0.890500	0.890500	0.890500	0.890500	0.890500	0.890500	0.890500	0.890500	0.890500	0.890500	0.890500	0.890500	0.890500	0.890500	0.890500	0.890500	0.890400	0.890500	0.890400	0.890400	0.890400
135.000000	0.860400	0.860400	0.860400	0.860400	0.860400	0.860500	0.860500	0.860500	0.860600	0.860500	0.860500	0.860400	0.860400	0.860400	0.860500	0.860500	0.860500	0.860500	0.860500	0.860500	0.860500	0.860500	0.860600	0.860600	0.860500	0.860600	0.860600	0.860600	0.860600	0.860600	0.860500	0.860500	0.860500	0.860500	0.860500	0.860500	0.860500	0.860500	0.860500
136.000000	0.830500	0.830500	0.830500	0.830500	0.830500	0.830600	0.830600	0.830600	0.830700	0.830600	0.830600	0.830500	0.830500	0.830400	0.830600	0.830600	0.830600	0.830600	0.830600	0.830600	0.830600	0.830600	0.830600	0.830600	0.830600	0.830600	0.830600	0.830600	0.830600	0.830600	0.830600	0.830600	0.830600	0.830600	0.830600	0.830600	0.830600	0.830600	0.830600
137.000000	0.800600	0.800600	0.800600	0.800700	0.800600	0.800700	0.800700	0.800700	0.800800	0.800800	0.800700	0.800700	0.800600	0.800600	0.800700	0.800700	0.800700	0.800700	0.800700	0.800700	0.800700	0.800800	0.800800	0.800800	0.800800	0.800800	0.800800	0.800800	0.800800	0.800800	0.800800	0.800700	0.800800	0.800700	0.800700	0.800700	0.800700	0.800700	0.800700
138.000000	0.770800	0.770800	0.770900	0.770900	0.770900	0.770900	0.770900	0.771000	0.771000	0.771000	0.770900	0.770900	0.770800	0.770800	0.770900	0.770900	0.770900	0.770900	0.770900	0.770900	0.771000	0.771000	0.771000	0.771000	0.771000	0.771000	0.771000	0.771000	0.771000	0.771000	0.771000	0.770900	0.771000	0.770900	0.770900	0.770900	0.770900	0.770900	0.770900
139.000000	0.741100	0.741100	0.741200	0.741200	0.741200	0.741200	0.741300	0.741300	0.741300	0.741300	0.741200	0.741200	0.741100	0.741100	0.741200	0.741300	0.741200	0.741300	0.741300	0.741300	0.741300	0.741300	0.741300	0.741300	0.741300	0.741300	0.741300	0.741300	0.741300	0.741300	0.741300	0.741300	0.741300	0.741300	0.741300	0.741300	0.741300	0.741200	0.741200
140.000000	0.711600	0.711600	0.711600	0.711700	0.711700	0.711700	0.711700	0.711700	0.711800	0.711700	0.711700	0.711700	0.711600	0.711600	0.711700	0.711700	0.711700	0.711700	0.711700	0.711700	0.711700	0.711700	0.711700	0.711700	0.711700	0.711700	0.711700	0.711700	0.711700	0.711700	0.711700	0.711700	0.711700	0.711700	0.711700	0.711700	0.711700	0.711700	0.711700
141.000000	0.682300	0.682300	0.682300	0.682300	0.682300	0.682400	0.682400	0.682400	0.682400	0.682400	0.682300	0.682300	0.682300	0.682300	0.682300	0.682400	0.682300	0.682400	0.682400	0.682400	0.682400	0.682400	0.682400	0.682400	0.682400	0.682400	0.682400	0.682400	0.682400	0.682400	0.682400	0.682400	0.682400	0.682400	0.682400	0.682400	0.682400	0.682400	0.682400
142.000000	0.653200	0.653200	0.653200	0.653200	0.653200	0.653200	0.653300	0.653300	0.653300	0.653300	0.653200	0.653200	0.653200	0.653100	0.653200	0.653300	0.653200	0.653300	0.653300	0.653300	0.653300	0.653300	0.653300	0.653300	0.653300	0.653300	0.653300	0.653300	0.653300	0.653300	0.653300	0.653300	0.653300	0.653300	0.653200	0.653300	0.653200	0.653200	0.653200
143.000000	0.624300	0.624300	0.624300	0.624300	0.624300	0.624400	0.624400	0.624400	0.624400	0.624400	0.624300	0.624300	0.624300	0.624300	0.624400	0.624400	0.624400	0.624400	0.624400	0.624400	0.624400	0.624400	0.624400	0.624400	0.624400	0.624400	0.624400	0.624400	0.624400	0.624400	0.624400	0.624400	0.624400	0.624400	0.624400	0.624400	0.624400	0.624400	0.624400
144.000000	0.595700	0.595700	0.595800	0.595800	0.595800	0.595800	0.595800	0.595800	0.595800	0.595800	0.595800	0.595800	0.595700	0.595700	0.595800	0.595800	0.595800	0.595800	0.595800	0.595800	0.595800	0.595800	0.595800	0.595800	0.595800	0.595800	0.595800	0.595800	0.595800	0.595800	0.595800	0.595800	0.595800	0.595800	0.595800	0.595800	0.595800	0.595800	0.595800
145.000000	0.567500	0.567500	0.567500	0.567500	0.567500	0.567600	0.567600	0.567600	0.567600	0.567600	0.567500	0.567500	0.567500	0.567500	0.567500	0.567600	0.567500	0.567600	0.567600	0.567600	0.567600	0.567600	0.567600	0.567600	0.567600	0.567600	0.567600	0.567600	0.567600	0.567600	0.567600	0.567600	0.567600	0.567600	0.567600	0.567600	0.567600	0.567600	0.567600
146.000000	0.539600	0.539600	0.539600	0.539600	0.539600	0.539700	0.539700	0.539700	0.539700	0.539700	0.539700	0.539600	0.539600	0.539600	0.539700	0.539700	0.539700	0.539700	0.539700	0.539700	0.539700	0.539700	0.539700	0.539700	0.539700	0.539700	0.539700	0.539700	0.539700	0.539700	0.539700	0.539700	0.539700	0.539700	0.539700	0.539700	0.539700	0.539700	0.539700
147.000000	0.512100	0.512100	0.512200	0.512200	0.512200	0.512200	0.512200	0.512200	0.512200	0.512200	0.512200	0.512200	0.512100	0.512100	0.512200	0.512200	0.512200	0.512200	0.512200	0.512200	0.512200	0.512200	0.512200	0.512200	0.512200	0.512200	0.512200	0.512200	0.512200	0.512200	0.512200	0.512200	0.512200	0.512200	0.512200	0.512200	0.512200	0.512200	0.512200
148.000000	0.485100	0.485100	0.485100	0.485100	0.485100	0.485100	0.485100	0.485100	0.485200	0.485100	0.485100	0.485100	0.485100	0.485100	0.485100	0.485100	0.485100	0.485100	0.485100	0.485100	0.485100	0.485100	0.485100	0.485100	0.485100	0.485100	0.485200	0.485200	0.485200	0.485200	0.485100	0.485100	0.485100	0.485100	0.485100	0.485100	0.485100	0.485100	0.485100
149.000000	0.458500	0.458500	0.458500	0.458500	0.458500	0.458500	0.458500	0.458500	0.458600	0.458600	0.458500	0.458500	0.458500	0.458500	0.458500	0.458500	0.458500	0.458500	0.458500	0.458500	0.458500	0.458600	0.458600	0.458600	0.458600	0.458600	0.458600	0.458600	0.458600	0.458600	0.458600	0.458500	0.458600	0.458500	0.458500	0.458500	0.458500	0.458500	0.458500
150.000000	0.432400	0.432400	0.432400	0.432400	0.432400	0.432400	0.432400	0.432400	0.432500	0.432400	0.432400	0.432400	0.432400	0.432400	0.432400	0.432400	0.432400	0.432400	0.432400	0.432400	0.432400	0.432400	0.432500	0.432500	0.432400	0.432500	0.432500	0.432500	0.432500	0.432500	0.432400	0.432400	0.432400	0.432400	0.432400	0.432400	0.432400	0.432400	0.432400
151.000000	0.406800	0.406800	0.406800	0.406800	0.406800	0.406900	0.406900	0.406900	0.406900	0.406900	0.406900	0.406800	0.406800	0.406800	0.406900	0.406900	0.406900	0.406900	0.406900	0.406900	0.406900	0.406900	0.406900	0.406900	0.406900	0.406900	0.406900	0.406900	0.406900	0.406900	0.406900	0.406900	0.406900	0.406900	0.406900	0.406900	0.406900	0.406900	0.406900
152.000000	0.381800	0.381800	0.381800	0.381800	0.381800	0.381800	0.381900	0.381900	0.381900	0.381900	0.381800	0.381800	0.381800	0.381800	0.381800	0.381900	0.381800	0.381900	0.381900	0.381900	0.381900	0.381900	0.381900	0.381900	0.381900	0.381900	0.381900	0.381900	0.381900	0.381900	0.381900	0.381900	0.381900	0.381900	0.381900	0.381900	0.381900	0.381800	0.381800
153.000000	0.357400	0.357400	0.357400	0.357400	0.357400	0.357400	0.357400	0.357400	0.357400	0.357400	0.357400	0.357400	0.357400	0.357400	0.357400	0.357400	0.357400	0.357400	0.357400	0.357400	0.357400	0.357400	0.357400	0.357400	0.357400	0.357400	0.357400	0.357400	0.357400	0.357400	0.357400	0.357400	0.357400	0.357400	0.357400	0.357400	0.357400	0.357400	0.357400
154.000000	0.333600	0.333600	0.333600	0.333600	0.333600	0.333600	0.333600	0.333600	0.333600	0.333600	0.333600	0.333600	0.333600	0.333600	0.333600	0.333600	0.333600	0.333600	0.333600	0.333600	0.333600	0.333600	0.333600	0.333600	0.333600	0.333600	0.333600	0.333600	0.333600	0.333600	0.333600	0.333600	0.333600	0.333600	0.333600	0.333600	0.333600	0.333600	0.333600
155.000000	0.310400	0.310400	0.310400	0.310400	0.310400	0.310400	0.310400	0.310400	0.310500	0.310400	0.310400	0.310400	0.310400	0.310400	0.310400	0.310400	0.310400	0.310400	0.310400	0.310400	0.310400	0.310400	0.310400	0.310400	0.310400	0.310400	0.310400	0.310400	0.310400	0.310400	0.310400	0.310400	0.310400	0.310400	0.310400	0.310400	0.310400	0.310400	0.310400
156.000000	0.287900	0.287900	0.287900	0.287900	0.287900	0.287900	0.287900	0.288000	0.288000	0.288000	0.287900	0.287900	0.287900	0.287900	0.287900	0.287900	0.287900	0.287900	0.287900	0.288000	0.288000	0.288000	0.288000	0.288000	0.288000	0.288000	0.288000	0.288000	0.288000	0.288000	0.288000	0.287900	0.288000	0.287900	0.287900	0.288000	0.287900	0.287900	0.287900
157.000000	0.266100	0.266100	0.266100	0.266100	0.266100	0.266200	0.266200	0.266200	0.266200	0.266200	0.266100	0.266100	0.266100	0.266100	0.266100	0.266200	0.266100	0.266200	0.266200	0.266200	0.266200	0.266200	0.266200	0.266200	0.266200	0.266200	0.266200	0.266200	0.266200	0.266200	0.266200	0.266200	0.266200	0.266200	0.266200	0.266200	0.266200	0.266200	0.266200
158.000000	0.245100	0.245100	0.245100	0.245100	0.245100	0.245100	0.245100	0.245100	0.245100	0.245100	0.245100	0.245100	0.245100	0.245100	0.245100	0.245100	0.245100	0.245100	0.245100	0.245100	0.245100	0.245100	0.245100	0.245100	0.245100	0.245100	0.245100	0.245100	0.245100	0.245100	0.245100	0.245100	0.245100	0.245100	0.245100	0.245100	0.245100	0.245100	0.245100
159.000000	0.224800	0.224800	0.224800	0.224800	0.224800	0.224800	0.224800	0.224800	0.224800	0.224800	0.224800	0.224800	0.224800	0.224800	0.224800	0.224800	0.224800	0.224800	0.224800	0.224800	0.224800	0.224800	0.224800	0.224800	0.224800	0.224800	0.224800	0.224800	0.224800	0.224800	0.224800	0.224800	0.224800	0.224800	0.224800	0.224800	0.224800	0.224800	0.224800
160.000000	0.205200	0.205200	0.205200	0.205200	0.205200	0.205200	0.205200	0.205200	0.205200	0.205200	0.205200	0.205200	0.205200	0.205200	0.205200	0.205200	0.205200	0.205200	0.205200	0.205200	0.205200	0.205200	0.205200	0.205200	0.205200	0.205200	0.205200	0.205200	0.205200	0.205200	0.205200	0.205200	0.205200	0.205200	0.205200	0.205200	0.205200	0.205200	0.205200
161.000000	0.186500	0.186500	0.186500	0.186500	0.186500	0.186500	0.186500	0.186500	0.186500	0.186500	0.186500	0.186500	0.186500	0.186500	0.186500	0.186500	0.186500	0.186500	0.186500	0.186500	0.186500	0.186500	0.186500	0.186500	0.186500	0.186500	0.186500	0.186500	0.186500	0.186500	0.186500	0.186500	0.186500	0.186500	0.186500	0.186500	0.186500	0.186500	0.186500
162.000000	0.168600	0.168600	0.168600	0.168600	0.168600	0.168600	0.168600	0.168600	0.168600	0.168600	0.168600	0.168600	0.168600	0.168600	0.168600	0.168600	0.168600	0.168600	0.168600	0.168600	0.168600	0.168600	0.168600	0.168600	0.168600	0.168600	0.168600	0.168600	0.168600	0.168600	0.168600	0.168600	0.168600	0.168600	0.168600	0.168600	0.168600	0.168600	0.168600
163.000000	0.151500	0.151500	0.151500	0.151500	0.151500	0.151500	0.151500	0.151500	0.151500	0.151500	0.151500	0.151500	0.151500	0.151500	0.151500	0.151500	0.151500	0.151500	0.151500	0.151500	0.151500	0.151500	0.151500	0.151500	0.151500	0.151500	0.151500	0.151500	0.151500	0.151500	0.151500	0.151500	0.151500	0.151500	0.151500	0.151500	0.151500	0.151500	0.151500
164.000000	0.135300	0.135300	0.135300	0.135300	0.135300	0.135300	0.135300	0.135300	0.135300	0.135300	0.135300	0.135300	0.135300	0.135300	0.135300	0.135300	0.135300	0.135300	0.135300	0.135300	0.135300	0.135300	0.135300	0.135300	0.135300	0.135300	0.135300	0.135300	0.135300	0.135300	0.135300	0.135300	0.135300	0.135300	0.135300	0.135300	0.135300	0.135300	0.135300
165.000000	0.120000	0.120000	0.120000	0.120000	0.120000	0.120000	0.120000	0.120000	0.120000	0.120000	0.120000	0.120000	0.120000	0.120000	0.120000	0.120000	0.120000	0.120000	0.120000	0.120000	0.120000	0.120000	0.120000	0.120000	0.120000	0.120000	0.120000	0.120000	0.120000	0.120000	0.120000	0.120000	0.120000	0.120000	0.120000	0.120000	0.120000	0.120000	0.120000
166.000000	0.105600	0.105600	0.105600	0.105600	0.105600	0.105600	0.105600	0.105600	0.105600	0.105600	0.105600	0.105600	0.105600	0.105600	0.105600	0.105600	0.105600	0.105600	0.105600	0.105600	0.105600	0.105600	0.105600	0.105600	0.105600	0.105600	0.105600	0.105600	0.105600	0.105600	0.105600	0.105600	0.105600	0.105600	0.105600	0.105600	0.105600	0.105600	0.105600
167.000000	0.092100	0.092100	0.092100	0.092100	0.092100	0.092100	0.092100	0.092100	0.092100	0.092100	0.092100	0.092100	0.092100	0.092100	0.092100	0.092100	0.092100	0.092100	0.092100	0.092100	0.092100	0.092100	0.092100	0.092100	0.092100	0.092100	0.092100	0.092100	0.092100	0.092100	0.092100	0.092100	0.092100	0.092100	0.092100	0.092100	0.092100	0.092100	0.092100
168.000000	0.079500	0.079500	0.079500	0.079500	0.079500	0.079500	0.079500	0.079500	0.079500	0.079500	0.079500	0.079500	0.079500	0.079500	0.079500	0.079500	0.079500	0.079500	0.079500	0.079500	0.079500	0.079500	0.079500	0.079500	0.079500	0.079500	0.079500	0.079500	0.079500	0.079500	0.079500	0.079500	0.079500	0.079500	0.079500	0.079500	0.079500	0.079500	0.079500
169.000000	0.067900	0.067900	0.067900	0.067900	0.067900	0.067900	0.067900	0.067900	0.067900	0.067900	0.067900	0.067900	0.067900	0.067900	0.067900	0.067900	0.067900	0.067900	0.067900	0.067900	0.067900	0.067900	0.067900	0.067900	0.067900	0.067900	0.067900	0.067900	0.067900	0.067900	0.067900	0.067900	0.067900	0.067900	0.067900	0.067900	0.067900	0.067900	0.067900
170.000000	0.057300	0.057300	0.057300	0.057300	0.057300	0.057300	0.057300	0.057300	0.057300	0.057300	0.057300	0.057300	0.057300	0.057300	0.057300	0.057300	0.057300	0.057300	0.057300	0.057300	0.057300	0.057300	0.057300	0.057300	0.057300	0.057300	0.057300	0.057300	0.057300	0.057300	0.057300	0.057300	0.057300	0.057300	0.057300	0.057300	0.057300	0.057300	0.057300
171.000000	0.047600	0.047600	0.047600	0.047600	0.047600	0.047600	0.047600	0.047600	0.047600	0.047600	0.047600	0.047600	0.047600	0.047600	0.047600	0.047600	0.047600	0.047600	0.047600	0.047600	0.047600	0.047600	0.047600	0.047600	0.047600	0.047600	0.047600	0.047600	0.047600	0.047600	0.047600	0.047600	0.047600	0.047600	0.047600	0.047600	0.047600	0.047600	0.047600
172.000000	0.038900	0.038900	0.038900	0.038900	0.038900	0.038900	0.038900	0.038900	0.038900	0.038900	0.038900	0.038900	0.038900	0.038900	0.038900	0.038900	0.038900	0.038900	0.038900	0.038900	0.038900	0.038900	0.038900	0.038900	0.038900	0.038900	0.038900	0.038900	0.038900	0.038900	0.038900	0.038900	0.038900	0.038900	0.038900	0.038900	0.038900	0.038900	0.038900
173.000000	0.031200	0.031200	0.031200	0.031200	0.031200	0.031200	0.031200	0.031200	0.031200	0.031200	0.031200	0.031200	0.031200	0.031200	0.031200	0.031200	0.031200	0.031200	0.031200	0.031200	0.031200	0.031200	0.031200	0.031200	0.031200	0.031200	0.031200	0.031200	0.031200	0.031200	0.031200	0.031200	0.031200	0.031200	0.031200	0.031200	0.031200	0.031200	0.031200
174.000000	0.024600	0.024600	0.024600	0.024600	0.024600	0.024600	0.024600	0.024600	0.024600	0.024600	0.024600	0.024600	0.024600	0.024600	0.024600	0.024600	0.024600	0.024600	0.024600	0.024600	0.024600	0.024600	0.024600	0.024600	0.024600	0.024600	0.024600	0.024600	0.024600	0.024600	0.024600	0.024600	0.024600	0.024600	0.024600	0.024600	0.024600	0.024600	0.024600
175.000000	0.018900	0.018900	0.018900	0.018900	0.018900	0.018900	0.018900	0.018900	0.018900	0.018900	0.018900	0.018900	0.018900	0.018900	0.018900	0.018900	0.018900	0.018900	0.018900	0.018900	0.018900	0.018900	0.018900	0.018900	0.018900	0.018900	0.018900	0.018900	0.018900	0.018900	0.018900	0.018900	0.018900	0.018900	0.018900	0.018900	0.018900	0.018900	0.018900
176.000000	0.014300	0.014300	0.014300	0.014300	0.014300	0.014300	0.014300	0.014300	0.014300	0.014300	0.014300	0.014300	0.014300	0.014300	0.014300	0.014300	0.014300	0.014300	0.014300	0.014300	0.014300	0.014300	0.014300	0.014300	0.014300	0.014300	0.014300	0.014300	0.014300	0.014300	0.014300	0.014300	0.014300	0.014300	0.014300	0.014300	0.014300	0.014300	0.014300
177.000000	0.010700	0.010700	0.010700	0.010700	0.010700	0.010700	0.010700	0.010700	0.010700	0.010700	0.010700	0.010700	0.010700	0.010700	0.010700	0.010700	0.010700	0.010700	0.010700	0.010700	0.010700	0.010700	0.010700	0.010700	0.010700	0.010700	0.010700	0.010700	0.010700	0.010700	0.010700	0.010700	0.010700	0.010700	0.010700	0.010700	0.010700	0.010700	0.010700
178.000000	0.008100	0.008100	0.008100	0.008100	0.008100	0.008100	0.008100	0.008100	0.008100	0.008100	0.008100	0.008100	0.008100	0.008100	0.008100	0.008100	0.008100	0.008100	0.008100	0.008100	0.008100	0.008100	0.008100	0.008100	0.008100	0.008100	0.008100	0.008100	0.008100	0.008100	0.008100	0.008100	0.008100	0.008100	0.008100	0.008100	0.008100	0.008100	0.008100
179.000000	0.006500	0.006500	0.006500	0.006500	0.006500	0.006500	0.006500	0.006500	0.006500	0.006500	0.006500	0.006500	0.006500	0.006500	0.006500	0.006500	0.006500	0.006500	0.006500	0.006500	0.006500	0.006500	0.006500	0.006500	0.006500	0.006500	0.006500	0.006500	0.006500	0.006500	0.006500	0.006500	0.006500	0.006500	0.006500	0.006500	0.006500	0.006500	0.006500
180.000000	0.006000	0.006000	0.006000	0.006000	0.006000	0.006000	0.006000	0.006000	0.006000	0.006000	0.006000	0.006000	0.006000	0.006000	0.006000	0.006000	0.006000	0.006000	0.006000	0.006000	0.006000	0.006000	0.006000	0.006000	0.006000	0.006000	0.006000	0.006000	0.006000	0.006000	0.006000	0.006000	0.006000	0.006000	0.006000	0.006000	0.006000	0.006000	0.006000
