First column is AoA (deg) and first row is Reynolds Number
0.000000	200000.000000	300000.000000	400000.000000	500000.000000	600000.000000	700000.000000	800000.000000	900000.000000	1000000.000000	1100000.000000	1200000.000000	1300000.000000	1400000.000000	1500000.000000	1600000.000000	1700000.000000	1800000.000000	1900000.000000	2000000.000000	2100000.000000	2200000.000000	2300000.000000	2400000.000000	2500000.000000	2600000.000000	2700000.000000	2800000.000000	2900000.000000	3000000.000000	3100000.000000	3200000.000000	3300000.000000	3400000.000000	3500000.000000	3600000.000000	3700000.000000	3800000.000000	3900000.000000	4000000.000000
-180.000000	0.006000	0.006000	0.006000	0.006000	0.006000	0.006000	0.006000	0.006000	0.006000	0.006000	0.006000	0.006000	0.006000	0.006000	0.006000	0.006000	0.006000	0.006000	0.006000	0.006000	0.006000	0.006000	0.006000	0.006000	0.006000	0.006000	0.006000	0.006000	0.006000	0.006000	0.006000	0.006000	0.006000	0.006000	0.006000	0.006000	0.006000	0.006000	0.006000
-179.000000	0.006500	0.006500	0.006500	0.006500	0.006500	0.006500	0.006500	0.006500	0.006500	0.006500	0.006500	0.006500	0.006500	0.006500	0.006500	0.006500	0.006500	0.006500	0.006500	0.006500	0.006500	0.006500	0.006500	0.006500	0.006500	0.006500	0.006500	0.006500	0.006500	0.006500	0.006500	0.006500	0.006500	0.006500	0.006500	0.006500	0.006500	0.006500	0.006500
-178.000000	0.008100	0.008100	0.008100	0.008100	0.008100	0.008100	0.008100	0.008100	0.008100	0.008100	0.008100	0.008100	0.008100	0.008100	0.008100	0.008100	0.008100	0.008100	0.008100	0.008100	0.008100	0.008100	0.008100	0.008100	0.008100	0.008100	0.008100	0.008100	0.008100	0.008100	0.008100	0.008100	0.008100	0.008100	0.008100	0.008100	0.008100	0.008100	0.008100
-177.000000	0.010600	0.010600	0.010600	0.010600	0.010600	0.010600	0.010600	0.010600	0.010600	0.010600	0.010600	0.010600	0.010600	0.010600	0.010600	0.010600	0.010600	0.010600	0.010600	0.010600	0.010600	0.010600	0.010600	0.010600	0.010600	0.010600	0.010600	0.010600	0.010600	0.010600	0.010600	0.010600	0.010600	0.010600	0.010600	0.010600	0.010600	0.010600	0.010600
-176.000000	0.014300	0.014300	0.014300	0.014300	0.014300	0.014300	0.014300	0.014300	0.014300	0.014300	0.014300	0.014300	0.014300	0.014300	0.014300	0.014300	0.014300	0.014300	0.014300	0.014300	0.014300	0.014300	0.014300	0.014300	0.014300	0.014300	0.014300	0.014300	0.014300	0.014300	0.014300	0.014300	0.014300	0.014300	0.014300	0.014300	0.014300	0.014300	0.014300
-175.000000	0.018900	0.018900	0.018900	0.018900	0.018900	0.018900	0.018900	0.018900	0.018900	0.018900	0.018900	0.018900	0.018900	0.018900	0.018900	0.018900	0.018900	0.018900	0.018900	0.018900	0.018900	0.018900	0.018900	0.018900	0.018900	0.018900	0.018900	0.018900	0.018900	0.018900	0.018900	0.018900	0.018900	0.018900	0.018900	0.018900	0.018900	0.018900	0.018900
-174.000000	0.024500	0.024500	0.024500	0.024500	0.024500	0.024500	0.024500	0.024500	0.024500	0.024500	0.024500	0.024500	0.024500	0.024500	0.024500	0.024500	0.024500	0.024500	0.024500	0.024500	0.024500	0.024500	0.024500	0.024500	0.024500	0.024500	0.024500	0.024500	0.024500	0.024500	0.024500	0.024500	0.024500	0.024500	0.024500	0.024500	0.024500	0.024500	0.024500
-173.000000	0.031200	0.031200	0.031200	0.031200	0.031200	0.031200	0.031200	0.031200	0.031200	0.031200	0.031200	0.031200	0.031200	0.031200	0.031200	0.031200	0.031200	0.031200	0.031200	0.031200	0.031200	0.031200	0.031200	0.031200	0.031200	0.031200	0.031200	0.031200	0.031200	0.031200	0.031200	0.031200	0.031200	0.031200	0.031200	0.031200	0.031200	0.031200	0.031200
-172.000000	0.038800	0.038800	0.038800	0.038800	0.038800	0.038800	0.038800	0.038800	0.038800	0.038800	0.038800	0.038800	0.038800	0.038800	0.038800	0.038800	0.038800	0.038800	0.038800	0.038800	0.038800	0.038800	0.038800	0.038800	0.038800	0.038800	0.038800	0.038800	0.038800	0.038800	0.038800	0.038800	0.038800	0.038800	0.038800	0.038800	0.038800	0.038800	0.038800
-171.000000	0.047500	0.047500	0.047500	0.047500	0.047500	0.047500	0.047500	0.047500	0.047500	0.047500	0.047500	0.047500	0.047500	0.047500	0.047500	0.047500	0.047500	0.047500	0.047500	0.047500	0.047500	0.047500	0.047500	0.047500	0.047500	0.047500	0.047500	0.047500	0.047500	0.047500	0.047500	0.047500	0.047500	0.047500	0.047500	0.047500	0.047500	0.047500	0.047500
-170.000000	0.057100	0.057100	0.057100	0.057100	0.057100	0.057100	0.057100	0.057100	0.057100	0.057100	0.057100	0.057100	0.057100	0.057100	0.057100	0.057100	0.057100	0.057100	0.057100	0.057100	0.057100	0.057100	0.057100	0.057100	0.057100	0.057100	0.057100	0.057100	0.057100	0.057100	0.057100	0.057100	0.057100	0.057100	0.057100	0.057100	0.057100	0.057100	0.057100
-169.000000	0.067700	0.067700	0.067700	0.067700	0.067700	0.067700	0.067700	0.067700	0.067700	0.067700	0.067700	0.067700	0.067700	0.067700	0.067700	0.067700	0.067700	0.067700	0.067700	0.067700	0.067700	0.067700	0.067700	0.067700	0.067700	0.067700	0.067700	0.067700	0.067700	0.067700	0.067700	0.067700	0.067700	0.067700	0.067700	0.067700	0.067700	0.067700	0.067700
-168.000000	0.079200	0.079200	0.079200	0.079200	0.079200	0.079200	0.079200	0.079200	0.079200	0.079200	0.079200	0.079200	0.079200	0.079200	0.079200	0.079200	0.079200	0.079200	0.079200	0.079200	0.079200	0.079200	0.079200	0.079200	0.079200	0.079200	0.079200	0.079200	0.079200	0.079200	0.079200	0.079200	0.079200	0.079200	0.079200	0.079200	0.079200	0.079200	0.079200
-167.000000	0.091700	0.091700	0.091700	0.091700	0.091700	0.091700	0.091700	0.091700	0.091700	0.091700	0.091700	0.091700	0.091700	0.091700	0.091700	0.091700	0.091700	0.091700	0.091700	0.091700	0.091700	0.091700	0.091700	0.091700	0.091700	0.091700	0.091700	0.091700	0.091700	0.091700	0.091700	0.091700	0.091700	0.091700	0.091700	0.091700	0.091700	0.091700	0.091700
-166.000000	0.105100	0.105100	0.105100	0.105100	0.105100	0.105100	0.105100	0.105100	0.105100	0.105100	0.105100	0.105100	0.105100	0.105100	0.105100	0.105100	0.105100	0.105100	0.105100	0.105100	0.105100	0.105100	0.105100	0.105100	0.105100	0.105100	0.105100	0.105100	0.105100	0.105100	0.105100	0.105100	0.105100	0.105100	0.105100	0.105100	0.105100	0.105100	0.105100
-165.000000	0.119500	0.119500	0.119500	0.119500	0.119500	0.119500	0.119500	0.119500	0.119500	0.119500	0.119500	0.119500	0.119500	0.119500	0.119500	0.119500	0.119500	0.119500	0.119500	0.119500	0.119500	0.119500	0.119500	0.119500	0.119500	0.119500	0.119500	0.119500	0.119500	0.119500	0.119500	0.119500	0.119500	0.119500	0.119500	0.119500	0.119500	0.119500	0.119500
-164.000000	0.134700	0.134700	0.134700	0.134700	0.134700	0.134700	0.134700	0.134700	0.134700	0.134700	0.134700	0.134700	0.134700	0.134700	0.134700	0.134700	0.134700	0.134700	0.134700	0.134700	0.134700	0.134700	0.134700	0.134700	0.134700	0.134700	0.134700	0.134700	0.134700	0.134700	0.134700	0.134700	0.134700	0.134700	0.134700	0.134700	0.134700	0.134700	0.134700
-163.000000	0.150700	0.150700	0.150700	0.150700	0.150700	0.150700	0.150700	0.150700	0.150700	0.150700	0.150700	0.150700	0.150700	0.150700	0.150700	0.150700	0.150700	0.150700	0.150700	0.150700	0.150700	0.150700	0.150700	0.150700	0.150700	0.150700	0.150700	0.150700	0.150700	0.150700	0.150700	0.150700	0.150700	0.150700	0.150700	0.150700	0.150700	0.150700	0.150700
-162.000000	0.167700	0.167700	0.167700	0.167700	0.167700	0.167700	0.167700	0.167700	0.167700	0.167700	0.167700	0.167700	0.167700	0.167700	0.167700	0.167700	0.167700	0.167700	0.167700	0.167700	0.167700	0.167700	0.167700	0.167700	0.167700	0.167700	0.167700	0.167700	0.167700	0.167700	0.167700	0.167700	0.167700	0.167700	0.167700	0.167700	0.167700	0.167700	0.167700
-161.000000	0.185400	0.185400	0.185400	0.185400	0.185400	0.185400	0.185400	0.185400	0.185400	0.185400	0.185400	0.185400	0.185400	0.185400	0.185400	0.185400	0.185400	0.185400	0.185400	0.185400	0.185400	0.185400	0.185400	0.185400	0.185400	0.185400	0.185400	0.185400	0.185400	0.185400	0.185400	0.185400	0.185400	0.185400	0.185400	0.185400	0.185400	0.185400	0.185400
-160.000000	0.204000	0.204000	0.204000	0.204000	0.204000	0.204000	0.204000	0.204000	0.204000	0.204000	0.204000	0.204000	0.204000	0.204000	0.204000	0.204000	0.204000	0.204000	0.204000	0.204000	0.204000	0.204000	0.204000	0.204000	0.204000	0.204000	0.204000	0.204000	0.204000	0.204000	0.204000	0.204000	0.204000	0.204000	0.204000	0.204000	0.204000	0.204000	0.204000
-159.000000	0.223300	0.223300	0.223300	0.223300	0.223300	0.223300	0.223300	0.223300	0.223300	0.223300	0.223300	0.223300	0.223300	0.223300	0.223300	0.223300	0.223300	0.223300	0.223300	0.223300	0.223300	0.223300	0.223300	0.223300	0.223300	0.223300	0.223300	0.223300	0.223300	0.223300	0.223300	0.223300	0.223300	0.223300	0.223300	0.223300	0.223300	0.223300	0.223300
-158.000000	0.243400	0.243400	0.243400	0.243400	0.243400	0.243400	0.243400	0.243400	0.243400	0.243400	0.243400	0.243400	0.243400	0.243400	0.243400	0.243400	0.243400	0.243400	0.243400	0.243400	0.243400	0.243400	0.243400	0.243400	0.243400	0.243400	0.243400	0.243400	0.243400	0.243400	0.243400	0.243400	0.243400	0.243400	0.243400	0.243400	0.243400	0.243400	0.243400
-157.000000	0.264200	0.264200	0.264200	0.264200	0.264200	0.264200	0.264200	0.264200	0.264200	0.264200	0.264200	0.264200	0.264200	0.264200	0.264200	0.264200	0.264200	0.264200	0.264200	0.264200	0.264200	0.264200	0.264200	0.264200	0.264200	0.264200	0.264200	0.264200	0.264200	0.264200	0.264200	0.264200	0.264200	0.264200	0.264200	0.264200	0.264200	0.264200	0.264200
-156.000000	0.285800	0.285800	0.285800	0.285800	0.285800	0.285800	0.285800	0.285800	0.285800	0.285800	0.285800	0.285800	0.285800	0.285800	0.285800	0.285800	0.285800	0.285800	0.285800	0.285800	0.285800	0.285800	0.285800	0.285800	0.285800	0.285800	0.285800	0.285800	0.285800	0.285800	0.285800	0.285800	0.285800	0.285800	0.285800	0.285800	0.285800	0.285800	0.285800
-155.000000	0.308000	0.308000	0.308000	0.308000	0.308000	0.308000	0.308000	0.308000	0.308000	0.308000	0.308000	0.308000	0.308000	0.308000	0.308000	0.308000	0.308000	0.308000	0.308000	0.308000	0.308000	0.308000	0.308000	0.308000	0.308000	0.308000	0.308000	0.308000	0.308000	0.308000	0.308000	0.308000	0.308000	0.308000	0.308000	0.308000	0.308000	0.308000	0.308000
-154.000000	0.330900	0.330900	0.330900	0.330900	0.330900	0.330900	0.330900	0.330900	0.330900	0.330900	0.330900	0.330900	0.330900	0.330900	0.330900	0.330900	0.330900	0.330900	0.330900	0.330900	0.330900	0.330900	0.330900	0.330900	0.330900	0.330900	0.330900	0.330900	0.330900	0.330900	0.330900	0.330900	0.330900	0.330900	0.330900	0.330900	0.330900	0.330900	0.330900
-153.000000	0.354400	0.354400	0.354400	0.354400	0.354400	0.354400	0.354400	0.354400	0.354400	0.354400	0.354400	0.354400	0.354400	0.354400	0.354400	0.354400	0.354400	0.354400	0.354400	0.354400	0.354400	0.354400	0.354400	0.354400	0.354400	0.354400	0.354400	0.354400	0.354400	0.354400	0.354400	0.354400	0.354400	0.354400	0.354400	0.354400	0.354400	0.354400	0.354400
-152.000000	0.378500	0.378500	0.378500	0.378500	0.378500	0.378500	0.378500	0.378500	0.378500	0.378500	0.378500	0.378500	0.378500	0.378500	0.378500	0.378500	0.378500	0.378500	0.378500	0.378500	0.378500	0.378500	0.378500	0.378500	0.378500	0.378500	0.378500	0.378500	0.378500	0.378500	0.378500	0.378500	0.378500	0.378500	0.378500	0.378500	0.378500	0.378500	0.378500
-151.000000	0.403200	0.403200	0.403200	0.403200	0.403200	0.403200	0.403200	0.403200	0.403200	0.403200	0.403200	0.403200	0.403200	0.403200	0.403200	0.403200	0.403200	0.403200	0.403200	0.403200	0.403200	0.403200	0.403200	0.403200	0.403200	0.403200	0.403200	0.403200	0.403200	0.403200	0.403200	0.403200	0.403200	0.403200	0.403200	0.403200	0.403200	0.403200	0.403200
-150.000000	0.428400	0.428400	0.428400	0.428400	0.428400	0.428400	0.428400	0.428400	0.428400	0.428400	0.428400	0.428400	0.428400	0.428400	0.428400	0.428400	0.428400	0.428400	0.428400	0.428400	0.428400	0.428400	0.428400	0.428400	0.428400	0.428400	0.428400	0.428400	0.428400	0.428400	0.428400	0.428400	0.428400	0.428400	0.428400	0.428400	0.428400	0.428400	0.428400
-149.000000	0.454200	0.454200	0.454200	0.454200	0.454200	0.454200	0.454200	0.454200	0.454200	0.454200	0.454200	0.454200	0.454200	0.454200	0.454200	0.454200	0.454200	0.454200	0.454200	0.454200	0.454200	0.454200	0.454200	0.454200	0.454200	0.454200	0.454200	0.454200	0.454200	0.454200	0.454200	0.454200	0.454200	0.454200	0.454200	0.454200	0.454200	0.454200	0.454200
-148.000000	0.480400	0.480400	0.480400	0.480400	0.480400	0.480400	0.480400	0.480400	0.480400	0.480400	0.480400	0.480400	0.480400	0.480400	0.480400	0.480400	0.480400	0.480400	0.480400	0.480400	0.480400	0.480400	0.480400	0.480400	0.480400	0.480400	0.480400	0.480400	0.480400	0.480400	0.480400	0.480400	0.480400	0.480400	0.480400	0.480400	0.480400	0.480400	0.480400
-147.000000	0.507000	0.507000	0.507000	0.507000	0.507000	0.507000	0.507000	0.507000	0.507000	0.507000	0.507000	0.507000	0.507000	0.507000	0.507000	0.507000	0.507000	0.507000	0.507000	0.507000	0.507000	0.507000	0.507000	0.507000	0.507000	0.507000	0.507000	0.507000	0.507000	0.507000	0.507000	0.507000	0.507000	0.507000	0.507000	0.507000	0.507000	0.507000	0.507000
-146.000000	0.534100	0.534100	0.534100	0.534100	0.534100	0.534100	0.534100	0.534100	0.534100	0.534100	0.534100	0.534100	0.534100	0.534100	0.534100	0.534100	0.534100	0.534100	0.534100	0.534100	0.534100	0.534100	0.534100	0.534100	0.534100	0.534100	0.534100	0.534100	0.534100	0.534100	0.534100	0.534100	0.534100	0.534100	0.534100	0.534100	0.534100	0.534100	0.534100
-145.000000	0.561500	0.561500	0.561500	0.561500	0.561500	0.561500	0.561500	0.561500	0.561500	0.561500	0.561500	0.561500	0.561500	0.561500	0.561500	0.561500	0.561500	0.561500	0.561500	0.561500	0.561500	0.561500	0.561500	0.561500	0.561500	0.561500	0.561500	0.561500	0.561500	0.561500	0.561500	0.561500	0.561500	0.561500	0.561500	0.561500	0.561500	0.561500	0.561500
-144.000000	0.589300	0.589300	0.589300	0.589300	0.589300	0.589300	0.589300	0.589300	0.589300	0.589300	0.589300	0.589300	0.589300	0.589300	0.589300	0.589300	0.589300	0.589300	0.589300	0.589300	0.589300	0.589300	0.589300	0.589300	0.589300	0.589300	0.589300	0.589300	0.589300	0.589300	0.589300	0.589300	0.589300	0.589300	0.589300	0.589300	0.589300	0.589300	0.589300
-143.000000	0.617400	0.617400	0.617400	0.617400	0.617400	0.617400	0.617400	0.617400	0.617400	0.617400	0.617400	0.617400	0.617400	0.617400	0.617400	0.617400	0.617400	0.617400	0.617400	0.617400	0.617400	0.617400	0.617400	0.617400	0.617400	0.617400	0.617400	0.617400	0.617400	0.617400	0.617400	0.617400	0.617400	0.617400	0.617400	0.617400	0.617400	0.617400	0.617400
-142.000000	0.645800	0.645800	0.645800	0.645800	0.645800	0.645800	0.645800	0.645800	0.645800	0.645800	0.645800	0.645800	0.645800	0.645800	0.645800	0.645800	0.645800	0.645800	0.645800	0.645800	0.645800	0.645800	0.645800	0.645800	0.645800	0.645800	0.645800	0.645800	0.645800	0.645800	0.645800	0.645800	0.645800	0.645800	0.645800	0.645800	0.645800	0.645800	0.645800
-141.000000	0.674400	0.674400	0.674400	0.674400	0.674400	0.674400	0.674400	0.674400	0.674400	0.674400	0.674400	0.674400	0.674400	0.674400	0.674400	0.674400	0.674400	0.674400	0.674400	0.674400	0.674400	0.674400	0.674400	0.674400	0.674400	0.674400	0.674400	0.674400	0.674400	0.674400	0.674400	0.674400	0.674400	0.674400	0.674400	0.674400	0.674400	0.674400	0.674400
-140.000000	0.703200	0.703200	0.703200	0.703200	0.703200	0.703200	0.703200	0.703200	0.703200	0.703200	0.703200	0.703200	0.703200	0.703200	0.703200	0.703200	0.703200	0.703200	0.703200	0.703200	0.703200	0.703200	0.703200	0.703200	0.703200	0.703200	0.703200	0.703200	0.703200	0.703200	0.703200	0.703200	0.703200	0.703200	0.703200	0.703200	0.703200	0.703200	0.703200
-139.000000	0.732200	0.732200	0.732200	0.732200	0.732200	0.732200	0.732200	0.732200	0.732200	0.732200	0.732200	0.732200	0.732200	0.732200	0.732200	0.732200	0.732200	0.732200	0.732200	0.732200	0.732200	0.732200	0.732200	0.732200	0.732200	0.732200	0.732200	0.732200	0.732200	0.732200	0.732200	0.732200	0.732200	0.732200	0.732200	0.732200	0.732200	0.732200	0.732200
-138.000000	0.761300	0.761300	0.761300	0.761300	0.761300	0.761300	0.761300	0.761300	0.761300	0.761300	0.761300	0.761300	0.761300	0.761300	0.761300	0.761300	0.761300	0.761300	0.761300	0.761300	0.761300	0.761300	0.761300	0.761300	0.761300	0.761300	0.761300	0.761300	0.761300	0.761300	0.761300	0.761300	0.761300	0.761300	0.761300	0.761300	0.761300	0.761300	0.761300
-137.000000	0.790600	0.790600	0.790600	0.790600	0.790600	0.790600	0.790600	0.790600	0.790600	0.790600	0.790600	0.790600	0.790600	0.790600	0.790600	0.790600	0.790600	0.790600	0.790600	0.790600	0.790600	0.790600	0.790600	0.790600	0.790600	0.790600	0.790600	0.790600	0.790600	0.790600	0.790600	0.790600	0.790600	0.790600	0.790600	0.790600	0.790600	0.790600	0.790600
-136.000000	0.819900	0.819900	0.819900	0.819900	0.819900	0.819900	0.819900	0.819900	0.819900	0.819900	0.819900	0.819900	0.819900	0.819900	0.819900	0.819900	0.819900	0.819900	0.819900	0.819900	0.819900	0.819900	0.819900	0.819900	0.819900	0.819900	0.819900	0.819900	0.819900	0.819900	0.819900	0.819900	0.819900	0.819900	0.819900	0.819900	0.819900	0.819900	0.819900
-135.000000	0.849200	0.849200	0.849200	0.849200	0.849200	0.849200	0.849200	0.849200	0.849200	0.849200	0.849200	0.849200	0.849200	0.849200	0.849200	0.849200	0.849200	0.849200	0.849200	0.849200	0.849200	0.849200	0.849200	0.849200	0.849200	0.849200	0.849200	0.849200	0.849200	0.849200	0.849200	0.849200	0.849200	0.849200	0.849200	0.849200	0.849200	0.849200	0.849200
-134.000000	0.878500	0.878500	0.878500	0.878500	0.878500	0.878500	0.878500	0.878500	0.878500	0.878500	0.878500	0.878500	0.878500	0.878500	0.878500	0.878500	0.878500	0.878500	0.878500	0.878500	0.878500	0.878500	0.878500	0.878500	0.878500	0.878500	0.878500	0.878500	0.878500	0.878500	0.878500	0.878500	0.878500	0.878500	0.878500	0.878500	0.878500	0.878500	0.878500
-133.000000	0.907800	0.907800	0.907800	0.907800	0.907800	0.907800	0.907800	0.907800	0.907800	0.907800	0.907800	0.907800	0.907800	0.907800	0.907800	0.907800	0.907800	0.907800	0.907800	0.907800	0.907800	0.907800	0.907800	0.907800	0.907800	0.907800	0.907800	0.907800	0.907800	0.907800	0.907800	0.907800	0.907800	0.907800	0.907800	0.907800	0.907800	0.907800	0.907800
-132.000000	0.937000	0.937000	0.937000	0.937000	0.937000	0.937000	0.937000	0.937000	0.937000	0.937000	0.937000	0.937000	0.937000	0.937000	0.937000	0.937000	0.937000	0.937000	0.937000	0.937000	0.937000	0.937000	0.937000	0.937000	0.937000	0.937000	0.937000	0.937000	0.937000	0.937000	0.937000	0.937000	0.937000	0.937000	0.937000	0.937000	0.937000	0.937000	0.937000
-131.000000	0.966100	0.966100	0.966100	0.966100	0.966100	0.966100	0.966100	0.966100	0.966100	0.966100	0.966100	0.966100	0.966100	0.966100	0.966100	0.966100	0.966100	0.966100	0.966100	0.966100	0.966100	0.966100	0.966100	0.966100	0.966100	0.966100	0.966100	0.966100	0.966100	0.966100	0.966100	0.966100	0.966100	0.966100	0.966100	0.966100	0.966100	0.966100	0.966100
-130.000000	0.995100	0.995100	0.995100	0.995100	0.995100	0.995100	0.995100	0.995100	0.995100	0.995100	0.995100	0.995100	0.995100	0.995100	0.995100	0.995100	0.995100	0.995100	0.995100	0.995100	0.995100	0.995100	0.995100	0.995100	0.995100	0.995100	0.995100	0.995100	0.995100	0.995100	0.995100	0.995100	0.995100	0.995100	0.995100	0.995100	0.995100	0.995100	0.995100
-129.000000	1.023800	1.023800	1.023800	1.023800	1.023800	1.023800	1.023800	1.023800	1.023800	1.023800	1.023800	1.023800	1.023800	1.023800	1.023800	1.023800	1.023800	1.023800	1.023800	1.023800	1.023800	1.023800	1.023800	1.023800	1.023800	1.023800	1.023800	1.023800	1.023800	1.023800	1.023800	1.023800	1.023800	1.023800	1.023800	1.023800	1.023800	1.023800	1.023800
-128.000000	1.052400	1.052400	1.052400	1.052400	1.052400	1.052400	1.052400	1.052400	1.052400	1.052400	1.052400	1.052400	1.052400	1.052400	1.052400	1.052400	1.052400	1.052400	1.052400	1.052400	1.052400	1.052400	1.052400	1.052400	1.052400	1.052400	1.052400	1.052400	1.052400	1.052400	1.052400	1.052400	1.052400	1.052400	1.052400	1.052400	1.052400	1.052400	1.052400
-127.000000	1.080700	1.080700	1.080700	1.080700	1.080700	1.080700	1.080700	1.080700	1.080700	1.080700	1.080700	1.080700	1.080700	1.080700	1.080700	1.080700	1.080700	1.080700	1.080700	1.080700	1.080700	1.080700	1.080700	1.080700	1.080700	1.080700	1.080700	1.080700	1.080700	1.080700	1.080700	1.080700	1.080700	1.080700	1.080700	1.080700	1.080700	1.080700	1.080700
-126.000000	1.108700	1.108700	1.108700	1.108700	1.108700	1.108700	1.108700	1.108700	1.108700	1.108700	1.108700	1.108700	1.108700	1.108700	1.108700	1.108700	1.108700	1.108700	1.108700	1.108700	1.108700	1.108700	1.108700	1.108700	1.108700	1.108700	1.108700	1.108700	1.108700	1.108700	1.108700	1.108700	1.108700	1.108700	1.108700	1.108700	1.108700	1.108700	1.108700
-125.000000	1.136400	1.136400	1.136400	1.136400	1.136400	1.136400	1.136400	1.136400	1.136400	1.136400	1.136400	1.136400	1.136400	1.136400	1.136400	1.136400	1.136400	1.136400	1.136400	1.136400	1.136400	1.136400	1.136400	1.136400	1.136400	1.136400	1.136400	1.136400	1.136400	1.136400	1.136400	1.136400	1.136400	1.136400	1.136400	1.136400	1.136400	1.136400	1.136400
-124.000000	1.163700	1.163700	1.163700	1.163700	1.163700	1.163700	1.163700	1.163700	1.163700	1.163700	1.163700	1.163700	1.163700	1.163700	1.163700	1.163700	1.163700	1.163700	1.163700	1.163700	1.163700	1.163700	1.163700	1.163700	1.163700	1.163700	1.163700	1.163700	1.163700	1.163700	1.163700	1.163700	1.163700	1.163700	1.163700	1.163700	1.163700	1.163700	1.163700
-123.000000	1.190700	1.190700	1.190700	1.190700	1.190700	1.190700	1.190700	1.190700	1.190700	1.190700	1.190700	1.190700	1.190700	1.190700	1.190700	1.190700	1.190700	1.190700	1.190700	1.190700	1.190700	1.190700	1.190700	1.190700	1.190700	1.190700	1.190700	1.190700	1.190700	1.190700	1.190700	1.190700	1.190700	1.190700	1.190700	1.190700	1.190700	1.190700	1.190700
-122.000000	1.217200	1.217200	1.217200	1.217200	1.217200	1.217200	1.217200	1.217200	1.217200	1.217200	1.217200	1.217200	1.217200	1.217200	1.217200	1.217200	1.217200	1.217200	1.217200	1.217200	1.217200	1.217200	1.217200	1.217200	1.217200	1.217200	1.217200	1.217200	1.217200	1.217200	1.217200	1.217200	1.217200	1.217200	1.217200	1.217200	1.217200	1.217200	1.217200
-121.000000	1.243300	1.243300	1.243300	1.243300	1.243300	1.243300	1.243300	1.243300	1.243300	1.243300	1.243300	1.243300	1.243300	1.243300	1.243300	1.243300	1.243300	1.243300	1.243300	1.243300	1.243300	1.243300	1.243300	1.243300	1.243300	1.243300	1.243300	1.243300	1.243300	1.243300	1.243300	1.243300	1.243300	1.243300	1.243300	1.243300	1.243300	1.243300	1.243300
-120.000000	1.268900	1.268900	1.268900	1.268900	1.268900	1.268900	1.268900	1.268900	1.268900	1.268900	1.268900	1.268900	1.268900	1.268900	1.268900	1.268900	1.268900	1.268900	1.268900	1.268900	1.268900	1.268900	1.268900	1.268900	1.268900	1.268900	1.268900	1.268900	1.268900	1.268900	1.268900	1.268900	1.268900	1.268900	1.268900	1.268900	1.268900	1.268900	1.268900
-119.000000	1.294000	1.294000	1.294000	1.294000	1.294000	1.294000	1.294000	1.294000	1.294000	1.294000	1.294000	1.294000	1.294000	1.294000	1.294000	1.294000	1.294000	1.294000	1.294000	1.294000	1.294000	1.294000	1.294000	1.294000	1.294000	1.294000	1.294000	1.294000	1.294000	1.294000	1.294000	1.294000	1.294000	1.294000	1.294000	1.294000	1.294000	1.294000	1.294000
-118.000000	1.318500	1.318500	1.318500	1.318500	1.318500	1.318500	1.318500	1.318500	1.318500	1.318500	1.318500	1.318500	1.318500	1.318500	1.318500	1.318500	1.318500	1.318500	1.318500	1.318500	1.318500	1.318500	1.318500	1.318500	1.318500	1.318500	1.318500	1.318500	1.318500	1.318500	1.318500	1.318500	1.318500	1.318500	1.318500	1.318500	1.318500	1.318500	1.318500
-117.000000	1.342500	1.342500	1.342500	1.342500	1.342500	1.342500	1.342500	1.342500	1.342500	1.342500	1.342500	1.342500	1.342500	1.342500	1.342500	1.342500	1.342500	1.342500	1.342500	1.342500	1.342500	1.342500	1.342500	1.342500	1.342500	1.342500	1.342500	1.342500	1.342500	1.342500	1.342500	1.342500	1.342500	1.342500	1.342500	1.342500	1.342500	1.342500	1.342500
-116.000000	1.365800	1.365800	1.365800	1.365800	1.365800	1.365800	1.365800	1.365800	1.365800	1.365800	1.365800	1.365800	1.365800	1.365800	1.365800	1.365800	1.365800	1.365800	1.365800	1.365800	1.365800	1.365800	1.365800	1.365800	1.365800	1.365800	1.365800	1.365800	1.365800	1.365800	1.365800	1.365800	1.365800	1.365800	1.365800	1.365800	1.365800	1.365800	1.365800
-115.000000	1.388600	1.388600	1.388600	1.388600	1.388600	1.388600	1.388600	1.388600	1.388600	1.388600	1.388600	1.388600	1.388600	1.388600	1.388600	1.388600	1.388600	1.388600	1.388600	1.388600	1.388600	1.388600	1.388600	1.388600	1.388600	1.388600	1.388600	1.388600	1.388600	1.388600	1.388600	1.388600	1.388600	1.388600	1.388600	1.388600	1.388600	1.388600	1.388600
-114.000000	1.410600	1.410600	1.410600	1.410600	1.410600	1.410600	1.410600	1.410600	1.410600	1.410600	1.410600	1.410600	1.410600	1.410600	1.410600	1.410600	1.410600	1.410600	1.410600	1.410600	1.410600	1.410600	1.410600	1.410600	1.410600	1.410600	1.410600	1.410600	1.410600	1.410600	1.410600	1.410600	1.410600	1.410600	1.410600	1.410600	1.410600	1.410600	1.410600
-113.000000	1.432000	1.432000	1.432000	1.432000	1.432000	1.432000	1.432000	1.432000	1.432000	1.432000	1.432000	1.432000	1.432000	1.432000	1.432000	1.432000	1.432000	1.432000	1.432000	1.432000	1.432000	1.432000	1.432000	1.432000	1.432000	1.432000	1.432000	1.432000	1.432000	1.432000	1.432000	1.432000	1.432000	1.432000	1.432000	1.432000	1.432000	1.432000	1.432000
-112.000000	1.452700	1.452700	1.452700	1.452700	1.452700	1.452700	1.452700	1.452700	1.452700	1.452700	1.452700	1.452700	1.452700	1.452700	1.452700	1.452700	1.452700	1.452700	1.452700	1.452700	1.452700	1.452700	1.452700	1.452700	1.452700	1.452700	1.452700	1.452700	1.452700	1.452700	1.452700	1.452700	1.452700	1.452700	1.452700	1.452700	1.452700	1.452700	1.452700
-111.000000	1.472600	1.472600	1.472600	1.472600	1.472600	1.472600	1.472600	1.472600	1.472600	1.472600	1.472600	1.472600	1.472600	1.472600	1.472600	1.472600	1.472600	1.472600	1.472600	1.472600	1.472600	1.472600	1.472600	1.472600	1.472600	1.472600	1.472600	1.472600	1.472600	1.472600	1.472600	1.472600	1.472600	1.472600	1.472600	1.472600	1.472600	1.472600	1.472600
-110.000000	1.491800	1.491800	1.491800	1.491800	1.491800	1.491800	1.491800	1.491800	1.491800	1.491800	1.491800	1.491800	1.491800	1.491800	1.491800	1.491800	1.491800	1.491800	1.491800	1.491800	1.491800	1.491800	1.491800	1.491800	1.491800	1.491800	1.491800	1.491800	1.491800	1.491800	1.491800	1.491800	1.491800	1.491800	1.491800	1.491800	1.491800	1.491800	1.491800
-109.000000	1.510200	1.510200	1.510200	1.510200	1.510200	1.510200	1.510200	1.510200	1.510200	1.510200	1.510200	1.510200	1.510200	1.510200	1.510200	1.510200	1.510200	1.510200	1.510200	1.510200	1.510200	1.510200	1.510200	1.510200	1.510200	1.510200	1.510200	1.510200	1.510200	1.510200	1.510200	1.510200	1.510200	1.510200	1.510200	1.510200	1.510200	1.510200	1.510200
-108.000000	1.527800	1.527800	1.527800	1.527800	1.527800	1.527800	1.527800	1.527800	1.527800	1.527800	1.527800	1.527800	1.527800	1.527800	1.527800	1.527800	1.527800	1.527800	1.527800	1.527800	1.527800	1.527800	1.527800	1.527800	1.527800	1.527800	1.527800	1.527800	1.527800	1.527800	1.527800	1.527800	1.527800	1.527800	1.527800	1.527800	1.527800	1.527800	1.527800
-107.000000	1.544600	1.544600	1.544600	1.544600	1.544600	1.544600	1.544600	1.544600	1.544600	1.544600	1.544600	1.544600	1.544600	1.544600	1.544600	1.544600	1.544600	1.544600	1.544600	1.544600	1.544600	1.544600	1.544600	1.544600	1.544600	1.544600	1.544600	1.544600	1.544600	1.544600	1.544600	1.544600	1.544600	1.544600	1.544600	1.544600	1.544600	1.544600	1.544600
-106.000000	1.560500	1.560500	1.560500	1.560500	1.560500	1.560500	1.560500	1.560500	1.560500	1.560500	1.560500	1.560500	1.560500	1.560500	1.560500	1.560500	1.560500	1.560500	1.560500	1.560500	1.560500	1.560500	1.560500	1.560500	1.560500	1.560500	1.560500	1.560500	1.560500	1.560500	1.560500	1.560500	1.560500	1.560500	1.560500	1.560500	1.560500	1.560500	1.560500
-105.000000	1.575500	1.575500	1.575500	1.575500	1.575500	1.575500	1.575500	1.575500	1.575500	1.575500	1.575500	1.575500	1.575500	1.575500	1.575500	1.575500	1.575500	1.575500	1.575500	1.575500	1.575500	1.575500	1.575500	1.575500	1.575500	1.575500	1.575500	1.575500	1.575500	1.575500	1.575500	1.575500	1.575500	1.575500	1.575500	1.575500	1.575500	1.575500	1.575500
-104.000000	1.589700	1.589700	1.589700	1.589700	1.589700	1.589700	1.589700	1.589700	1.589700	1.589700	1.589700	1.589700	1.589700	1.589700	1.589700	1.589700	1.589700	1.589700	1.589700	1.589700	1.589700	1.589700	1.589700	1.589700	1.589700	1.589700	1.589700	1.589700	1.589700	1.589700	1.589700	1.589700	1.589700	1.589700	1.589700	1.589700	1.589700	1.589700	1.589700
-103.000000	1.603000	1.603000	1.603000	1.603000	1.603000	1.603000	1.603000	1.603000	1.603000	1.603000	1.603000	1.603000	1.603000	1.603000	1.603000	1.603000	1.603000	1.603000	1.603000	1.603000	1.603000	1.603000	1.603000	1.603000	1.603000	1.603000	1.603000	1.603000	1.603000	1.603000	1.603000	1.603000	1.603000	1.603000	1.603000	1.603000	1.603000	1.603000	1.603000
-102.000000	1.615300	1.615300	1.615300	1.615300	1.615300	1.615300	1.615300	1.615300	1.615300	1.615300	1.615300	1.615300	1.615300	1.615300	1.615300	1.615300	1.615300	1.615300	1.615300	1.615300	1.615300	1.615300	1.615300	1.615300	1.615300	1.615300	1.615300	1.615300	1.615300	1.615300	1.615300	1.615300	1.615300	1.615300	1.615300	1.615300	1.615300	1.615300	1.615300
-101.000000	1.626700	1.626700	1.626700	1.626700	1.626700	1.626700	1.626700	1.626700	1.626700	1.626700	1.626700	1.626700	1.626700	1.626700	1.626700	1.626700	1.626700	1.626700	1.626700	1.626700	1.626700	1.626700	1.626700	1.626700	1.626700	1.626700	1.626700	1.626700	1.626700	1.626700	1.626700	1.626700	1.626700	1.626700	1.626700	1.626700	1.626700	1.626700	1.626700
-100.000000	1.637200	1.637200	1.637200	1.637200	1.637200	1.637200	1.637200	1.637200	1.637200	1.637200	1.637200	1.637200	1.637200	1.637200	1.637200	1.637200	1.637200	1.637200	1.637200	1.637200	1.637200	1.637200	1.637200	1.637200	1.637200	1.637200	1.637200	1.637200	1.637200	1.637200	1.637200	1.637200	1.637200	1.637200	1.637200	1.637200	1.637200	1.637200	1.637200
-99.000000	1.646700	1.646700	1.646700	1.646700	1.646700	1.646700	1.646700	1.646700	1.646700	1.646700	1.646700	1.646700	1.646700	1.646700	1.646700	1.646700	1.646700	1.646700	1.646700	1.646700	1.646700	1.646700	1.646700	1.646700	1.646700	1.646700	1.646700	1.646700	1.646700	1.646700	1.646700	1.646700	1.646700	1.646700	1.646700	1.646700	1.646700	1.646700	1.646700
-98.000000	1.655300	1.655300	1.655300	1.655300	1.655300	1.655300	1.655300	1.655300	1.655300	1.655300	1.655300	1.655300	1.655300	1.655300	1.655300	1.655300	1.655300	1.655300	1.655300	1.655300	1.655300	1.655300	1.655300	1.655300	1.655300	1.655300	1.655300	1.655300	1.655300	1.655300	1.655300	1.655300	1.655300	1.655300	1.655300	1.655300	1.655300	1.655300	1.655300
-97.000000	1.662800	1.662800	1.662800	1.662800	1.662800	1.662800	1.662800	1.662800	1.662800	1.662800	1.662800	1.662800	1.662800	1.662800	1.662800	1.662800	1.662800	1.662800	1.662800	1.662800	1.662800	1.662800	1.662800	1.662800	1.662800	1.662800	1.662800	1.662800	1.662800	1.662800	1.662800	1.662800	1.662800	1.662800	1.662800	1.662800	1.662800	1.662800	1.662800
-96.000000	1.669400	1.669400	1.669400	1.669400	1.669400	1.669400	1.669400	1.669400	1.669400	1.669400	1.669400	1.669400	1.669400	1.669400	1.669400	1.669400	1.669400	1.669400	1.669400	1.669400	1.669400	1.669400	1.669400	1.669400	1.669400	1.669400	1.669400	1.669400	1.669400	1.669400	1.669400	1.669400	1.669400	1.669400	1.669400	1.669400	1.669400	1.669400	1.669400
-95.000000	1.675000	1.675000	1.675000	1.675000	1.675000	1.675000	1.675000	1.675000	1.675000	1.675000	1.675000	1.675000	1.675000	1.675000	1.675000	1.675000	1.675000	1.675000	1.675000	1.675000	1.675000	1.675000	1.675000	1.675000	1.675000	1.675000	1.675000	1.675000	1.675000	1.675000	1.675000	1.675000	1.675000	1.675000	1.675000	1.675000	1.675000	1.675000	1.675000
-94.000000	1.679500	1.679500	1.679500	1.679500	1.679500	1.679500	1.679500	1.679500	1.679500	1.679500	1.679500	1.679500	1.679500	1.679500	1.679500	1.679500	1.679500	1.679500	1.679500	1.679500	1.679500	1.679500	1.679500	1.679500	1.679500	1.679500	1.679500	1.679500	1.679500	1.679500	1.679500	1.679500	1.679500	1.679500	1.679500	1.679500	1.679500	1.679500	1.679500
-93.000000	1.683100	1.683100	1.683100	1.683100	1.683100	1.683100	1.683100	1.683100	1.683100	1.683100	1.683100	1.683100	1.683100	1.683100	1.683100	1.683100	1.683100	1.683100	1.683100	1.683100	1.683100	1.683100	1.683100	1.683100	1.683100	1.683100	1.683100	1.683100	1.683100	1.683100	1.683100	1.683100	1.683100	1.683100	1.683100	1.683100	1.683100	1.683100	1.683100
-92.000000	1.685600	1.685600	1.685600	1.685600	1.685600	1.685600	1.685600	1.685600	1.685600	1.685600	1.685600	1.685600	1.685600	1.685600	1.685600	1.685600	1.685600	1.685600	1.685600	1.685600	1.685600	1.685600	1.685600	1.685600	1.685600	1.685600	1.685600	1.685600	1.685600	1.685600	1.685600	1.685600	1.685600	1.685600	1.685600	1.685600	1.685600	1.685600	1.685600
-91.000000	1.687200	1.687200	1.687200	1.687200	1.687200	1.687200	1.687200	1.687200	1.687200	1.687200	1.687200	1.687200	1.687200	1.687200	1.687200	1.687200	1.687200	1.687200	1.687200	1.687200	1.687200	1.687200	1.687200	1.687200	1.687200	1.687200	1.687200	1.687200	1.687200	1.687200	1.687200	1.687200	1.687200	1.687200	1.687200	1.687200	1.687200	1.687200	1.687200
-90.000000	1.687700	1.687700	1.687700	1.687700	1.687700	1.687700	1.687700	1.687700	1.687700	1.687700	1.687700	1.687700	1.687700	1.687700	1.687700	1.687700	1.687700	1.687700	1.687700	1.687700	1.687700	1.687700	1.687700	1.687700	1.687700	1.687700	1.687700	1.687700	1.687700	1.687700	1.687700	1.687700	1.687700	1.687700	1.687700	1.687700	1.687700	1.687700	1.687700
-89.000000	1.687200	1.687200	1.687200	1.687200	1.687200	1.687200	1.687200	1.687200	1.687200	1.687200	1.687200	1.687200	1.687200	1.687200	1.687200	1.687200	1.687200	1.687200	1.687200	1.687200	1.687200	1.687200	1.687200	1.687200	1.687200	1.687200	1.687200	1.687200	1.687200	1.687200	1.687200	1.687200	1.687200	1.687200	1.687200	1.687200	1.687200	1.687200	1.687200
-88.000000	1.685600	1.685600	1.685600	1.685600	1.685600	1.685600	1.685600	1.685600	1.685600	1.685600	1.685600	1.685600	1.685600	1.685600	1.685600	1.685600	1.685600	1.685600	1.685600	1.685600	1.685600	1.685600	1.685600	1.685600	1.685600	1.685600	1.685600	1.685600	1.685600	1.685600	1.685600	1.685600	1.685600	1.685600	1.685600	1.685600	1.685600	1.685600	1.685600
-87.000000	1.683100	1.683100	1.683100	1.683100	1.683100	1.683100	1.683100	1.683100	1.683100	1.683100	1.683100	1.683100	1.683100	1.683100	1.683100	1.683100	1.683100	1.683100	1.683100	1.683100	1.683100	1.683100	1.683100	1.683100	1.683100	1.683100	1.683100	1.683100	1.683100	1.683100	1.683100	1.683100	1.683100	1.683100	1.683100	1.683100	1.683100	1.683100	1.683100
-86.000000	1.679500	1.679500	1.679500	1.679500	1.679500	1.679500	1.679500	1.679500	1.679500	1.679500	1.679500	1.679500	1.679500	1.679500	1.679500	1.679500	1.679500	1.679500	1.679500	1.679500	1.679500	1.679500	1.679500	1.679500	1.679500	1.679500	1.679500	1.679500	1.679500	1.679500	1.679500	1.679500	1.679500	1.679500	1.679500	1.679500	1.679500	1.679500	1.679500
-85.000000	1.674900	1.675000	1.675000	1.675000	1.675000	1.675000	1.675000	1.675000	1.675000	1.675000	1.675000	1.675000	1.675000	1.675000	1.675000	1.675000	1.675000	1.675000	1.675000	1.675000	1.675000	1.675000	1.675000	1.675000	1.675000	1.675000	1.675000	1.675000	1.675000	1.675000	1.675000	1.675000	1.675000	1.675000	1.675000	1.675000	1.675000	1.675000	1.675000
-84.000000	1.669400	1.669400	1.669400	1.669400	1.669400	1.669400	1.669400	1.669400	1.669400	1.669400	1.669400	1.669400	1.669400	1.669400	1.669400	1.669400	1.669400	1.669400	1.669400	1.669400	1.669400	1.669400	1.669400	1.669400	1.669400	1.669400	1.669400	1.669400	1.669400	1.669400	1.669400	1.669400	1.669400	1.669400	1.669400	1.669400	1.669400	1.669400	1.669400
-83.000000	1.662800	1.662800	1.662800	1.662800	1.662800	1.662800	1.662800	1.662800	1.662800	1.662800	1.662800	1.662800	1.662800	1.662800	1.662800	1.662800	1.662800	1.662800	1.662800	1.662800	1.662800	1.662800	1.662800	1.662800	1.662800	1.662800	1.662800	1.662800	1.662800	1.662800	1.662800	1.662800	1.662800	1.662800	1.662800	1.662800	1.662800	1.662800	1.662800
-82.000000	1.655200	1.655200	1.655200	1.655200	1.655200	1.655200	1.655200	1.655200	1.655200	1.655200	1.655200	1.655200	1.655200	1.655200	1.655200	1.655200	1.655200	1.655200	1.655200	1.655200	1.655200	1.655200	1.655200	1.655200	1.655200	1.655200	1.655200	1.655200	1.655200	1.655200	1.655200	1.655200	1.655200	1.655200	1.655200	1.655200	1.655200	1.655200	1.655200
-81.000000	1.646700	1.646700	1.646700	1.646700	1.646700	1.646700	1.646700	1.646700	1.646700	1.646700	1.646700	1.646700	1.646700	1.646700	1.646700	1.646700	1.646700	1.646700	1.646700	1.646700	1.646700	1.646700	1.646700	1.646700	1.646700	1.646700	1.646700	1.646700	1.646700	1.646700	1.646700	1.646700	1.646700	1.646700	1.646700	1.646700	1.646700	1.646700	1.646700
-80.000000	1.637200	1.637200	1.637200	1.637200	1.637200	1.637200	1.637200	1.637200	1.637200	1.637200	1.637200	1.637200	1.637200	1.637200	1.637200	1.637200	1.637200	1.637200	1.637200	1.637200	1.637200	1.637200	1.637200	1.637200	1.637200	1.637200	1.637200	1.637200	1.637200	1.637200	1.637200	1.637200	1.637200	1.637200	1.637200	1.637200	1.637200	1.637200	1.637200
-79.000000	1.626700	1.626700	1.626700	1.626700	1.626700	1.626700	1.626700	1.626700	1.626700	1.626700	1.626700	1.626700	1.626700	1.626700	1.626700	1.626700	1.626700	1.626700	1.626700	1.626700	1.626700	1.626700	1.626700	1.626700	1.626700	1.626700	1.626700	1.626700	1.626700	1.626700	1.626700	1.626700	1.626700	1.626700	1.626700	1.626700	1.626700	1.626700	1.626700
-78.000000	1.615300	1.615300	1.615300	1.615300	1.615300	1.615300	1.615300	1.615300	1.615300	1.615300	1.615300	1.615300	1.615300	1.615300	1.615300	1.615300	1.615300	1.615300	1.615300	1.615300	1.615300	1.615300	1.615300	1.615300	1.615300	1.615300	1.615300	1.615300	1.615300	1.615300	1.615300	1.615300	1.615300	1.615300	1.615300	1.615300	1.615300	1.615300	1.615300
-77.000000	1.602900	1.602900	1.602900	1.602900	1.602900	1.602900	1.602900	1.602900	1.602900	1.602900	1.602900	1.602900	1.602900	1.602900	1.602900	1.602900	1.602900	1.602900	1.602900	1.602900	1.602900	1.602900	1.602900	1.602900	1.602900	1.602900	1.602900	1.602900	1.602900	1.602900	1.602900	1.602900	1.602900	1.602900	1.602900	1.602900	1.602900	1.602900	1.602900
-76.000000	1.589700	1.589700	1.589700	1.589700	1.589700	1.589700	1.589700	1.589700	1.589700	1.589700	1.589700	1.589700	1.589700	1.589700	1.589700	1.589700	1.589700	1.589700	1.589700	1.589700	1.589700	1.589700	1.589700	1.589700	1.589700	1.589700	1.589700	1.589700	1.589700	1.589700	1.589700	1.589700	1.589700	1.589700	1.589700	1.589700	1.589700	1.589700	1.589700
-75.000000	1.575500	1.575500	1.575500	1.575500	1.575500	1.575500	1.575500	1.575500	1.575500	1.575500	1.575500	1.575500	1.575500	1.575500	1.575500	1.575500	1.575500	1.575500	1.575500	1.575500	1.575500	1.575500	1.575500	1.575500	1.575500	1.575500	1.575500	1.575500	1.575500	1.575500	1.575500	1.575500	1.575500	1.575500	1.575500	1.575500	1.575500	1.575500	1.575500
-74.000000	1.560400	1.560400	1.560400	1.560400	1.560400	1.560400	1.560400	1.560400	1.560400	1.560400	1.560400	1.560400	1.560400	1.560400	1.560400	1.560400	1.560400	1.560400	1.560400	1.560400	1.560400	1.560400	1.560400	1.560400	1.560400	1.560400	1.560400	1.560400	1.560400	1.560400	1.560400	1.560400	1.560400	1.560400	1.560400	1.560400	1.560400	1.560400	1.560400
-73.000000	1.544500	1.544500	1.544500	1.544500	1.544500	1.544500	1.544500	1.544500	1.544500	1.544500	1.544500	1.544500	1.544500	1.544500	1.544500	1.544500	1.544500	1.544500	1.544500	1.544500	1.544500	1.544500	1.544500	1.544500	1.544500	1.544500	1.544500	1.544500	1.544500	1.544500	1.544500	1.544500	1.544500	1.544500	1.544500	1.544500	1.544500	1.544500	1.544500
-72.000000	1.527700	1.527800	1.527800	1.527800	1.527800	1.527800	1.527800	1.527800	1.527800	1.527800	1.527800	1.527800	1.527800	1.527800	1.527800	1.527800	1.527800	1.527800	1.527800	1.527800	1.527800	1.527800	1.527800	1.527800	1.527800	1.527800	1.527800	1.527800	1.527800	1.527800	1.527800	1.527800	1.527800	1.527800	1.527800	1.527800	1.527800	1.527800	1.527800
-71.000000	1.510200	1.510200	1.510200	1.510200	1.510200	1.510200	1.510200	1.510200	1.510200	1.510200	1.510200	1.510200	1.510200	1.510200	1.510200	1.510200	1.510200	1.510200	1.510200	1.510200	1.510200	1.510200	1.510200	1.510200	1.510200	1.510200	1.510200	1.510200	1.510200	1.510200	1.510200	1.510200	1.510200	1.510200	1.510200	1.510200	1.510200	1.510200	1.510200
-70.000000	1.491800	1.491800	1.491800	1.491800	1.491800	1.491800	1.491800	1.491800	1.491800	1.491800	1.491800	1.491800	1.491800	1.491800	1.491800	1.491800	1.491800	1.491800	1.491800	1.491800	1.491800	1.491800	1.491800	1.491800	1.491800	1.491800	1.491800	1.491800	1.491800	1.491800	1.491800	1.491800	1.491800	1.491800	1.491800	1.491800	1.491800	1.491800	1.491800
-69.000000	1.472600	1.472600	1.472600	1.472600	1.472600	1.472600	1.472600	1.472600	1.472600	1.472600	1.472600	1.472600	1.472600	1.472600	1.472600	1.472600	1.472600	1.472600	1.472600	1.472600	1.472600	1.472600	1.472600	1.472600	1.472600	1.472600	1.472600	1.472600	1.472600	1.472600	1.472600	1.472600	1.472600	1.472600	1.472600	1.472600	1.472600	1.472600	1.472600
-68.000000	1.452600	1.452600	1.452600	1.452600	1.452600	1.452600	1.452600	1.452600	1.452600	1.452600	1.452600	1.452600	1.452600	1.452600	1.452600	1.452600	1.452600	1.452600	1.452600	1.452600	1.452600	1.452600	1.452600	1.452600	1.452600	1.452600	1.452600	1.452600	1.452600	1.452600	1.452600	1.452600	1.452600	1.452600	1.452600	1.452600	1.452600	1.452600	1.452600
-67.000000	1.431900	1.431900	1.431900	1.431900	1.431900	1.431900	1.431900	1.431900	1.431900	1.431900	1.431900	1.431900	1.431900	1.431900	1.432000	1.432000	1.432000	1.432000	1.432000	1.432000	1.432000	1.432000	1.432000	1.432000	1.432000	1.432000	1.432000	1.432000	1.432000	1.432000	1.432000	1.432000	1.432000	1.432000	1.432000	1.432000	1.432000	1.432000	1.432000
-66.000000	1.410500	1.410600	1.410600	1.410600	1.410600	1.410600	1.410600	1.410600	1.410600	1.410600	1.410600	1.410600	1.410600	1.410600	1.410600	1.410600	1.410600	1.410600	1.410600	1.410600	1.410600	1.410600	1.410600	1.410600	1.410600	1.410600	1.410600	1.410600	1.410600	1.410600	1.410600	1.410600	1.410600	1.410600	1.410600	1.410600	1.410600	1.410600	1.410600
-65.000000	1.388500	1.388500	1.388500	1.388500	1.388500	1.388500	1.388500	1.388500	1.388500	1.388500	1.388500	1.388500	1.388500	1.388500	1.388500	1.388500	1.388500	1.388500	1.388500	1.388500	1.388500	1.388500	1.388500	1.388500	1.388500	1.388500	1.388500	1.388500	1.388500	1.388500	1.388500	1.388500	1.388500	1.388500	1.388500	1.388500	1.388500	1.388500	1.388500
-64.000000	1.365700	1.365700	1.365700	1.365700	1.365700	1.365700	1.365700	1.365700	1.365700	1.365700	1.365700	1.365700	1.365700	1.365700	1.365700	1.365700	1.365700	1.365700	1.365700	1.365700	1.365700	1.365700	1.365700	1.365700	1.365700	1.365700	1.365700	1.365700	1.365700	1.365700	1.365700	1.365700	1.365700	1.365700	1.365700	1.365700	1.365700	1.365700	1.365700
-63.000000	1.342400	1.342400	1.342400	1.342400	1.342400	1.342400	1.342400	1.342400	1.342400	1.342400	1.342400	1.342400	1.342400	1.342400	1.342400	1.342400	1.342400	1.342400	1.342400	1.342400	1.342400	1.342400	1.342400	1.342400	1.342400	1.342400	1.342400	1.342400	1.342400	1.342400	1.342400	1.342400	1.342400	1.342400	1.342400	1.342400	1.342400	1.342400	1.342400
-62.000000	1.318400	1.318400	1.318400	1.318400	1.318400	1.318400	1.318400	1.318400	1.318400	1.318400	1.318400	1.318400	1.318400	1.318400	1.318400	1.318400	1.318400	1.318400	1.318400	1.318400	1.318400	1.318400	1.318400	1.318400	1.318400	1.318400	1.318400	1.318400	1.318400	1.318400	1.318400	1.318400	1.318400	1.318400	1.318400	1.318400	1.318400	1.318400	1.318400
-61.000000	1.293800	1.293800	1.293800	1.293900	1.293900	1.293900	1.293900	1.293900	1.293900	1.293900	1.293900	1.293900	1.293900	1.293900	1.293900	1.293900	1.293900	1.293900	1.293900	1.293900	1.293900	1.293900	1.293900	1.293900	1.293900	1.293900	1.293900	1.293900	1.293900	1.293900	1.293900	1.293900	1.293900	1.293900	1.293900	1.293900	1.293900	1.293900	1.293900
-60.000000	1.268700	1.268800	1.268800	1.268800	1.268800	1.268800	1.268800	1.268800	1.268800	1.268800	1.268800	1.268800	1.268800	1.268800	1.268800	1.268800	1.268800	1.268800	1.268800	1.268800	1.268800	1.268800	1.268800	1.268800	1.268800	1.268800	1.268800	1.268800	1.268800	1.268800	1.268800	1.268800	1.268800	1.268800	1.268800	1.268800	1.268800	1.268800	1.268800
-59.000000	1.243100	1.243200	1.243200	1.243200	1.243200	1.243200	1.243200	1.243200	1.243200	1.243200	1.243200	1.243200	1.243200	1.243200	1.243200	1.243200	1.243200	1.243200	1.243200	1.243200	1.243200	1.243200	1.243200	1.243200	1.243200	1.243200	1.243200	1.243200	1.243200	1.243200	1.243200	1.243200	1.243200	1.243200	1.243200	1.243200	1.243200	1.243200	1.243200
-58.000000	1.217000	1.217100	1.217100	1.217100	1.217100	1.217100	1.217100	1.217100	1.217100	1.217100	1.217100	1.217100	1.217100	1.217100	1.217100	1.217100	1.217100	1.217100	1.217100	1.217100	1.217100	1.217100	1.217100	1.217100	1.217100	1.217100	1.217100	1.217100	1.217100	1.217100	1.217100	1.217100	1.217100	1.217100	1.217100	1.217100	1.217100	1.217100	1.217100
-57.000000	1.190500	1.190500	1.190500	1.190500	1.190500	1.190500	1.190500	1.190500	1.190500	1.190500	1.190500	1.190500	1.190500	1.190500	1.190500	1.190500	1.190500	1.190500	1.190500	1.190500	1.190500	1.190500	1.190500	1.190500	1.190500	1.190500	1.190500	1.190500	1.190500	1.190500	1.190500	1.190500	1.190500	1.190500	1.190500	1.190500	1.190500	1.190500	1.190500
-56.000000	1.163500	1.163600	1.163600	1.163600	1.163600	1.163600	1.163600	1.163600	1.163600	1.163600	1.163600	1.163600	1.163600	1.163600	1.163600	1.163600	1.163600	1.163600	1.163600	1.163600	1.163600	1.163600	1.163600	1.163600	1.163600	1.163600	1.163600	1.163600	1.163600	1.163600	1.163600	1.163600	1.163600	1.163600	1.163600	1.163600	1.163600	1.163600	1.163600
-55.000000	1.136200	1.136200	1.136200	1.136200	1.136200	1.136200	1.136200	1.136200	1.136200	1.136200	1.136200	1.136200	1.136200	1.136200	1.136200	1.136200	1.136200	1.136200	1.136200	1.136200	1.136200	1.136200	1.136200	1.136200	1.136200	1.136200	1.136200	1.136200	1.136200	1.136200	1.136200	1.136200	1.136200	1.136200	1.136200	1.136200	1.136200	1.136200	1.136200
-54.000000	1.108500	1.108500	1.108500	1.108500	1.108500	1.108500	1.108500	1.108500	1.108500	1.108500	1.108500	1.108500	1.108500	1.108500	1.108500	1.108500	1.108500	1.108500	1.108500	1.108500	1.108500	1.108500	1.108500	1.108500	1.108500	1.108500	1.108500	1.108500	1.108500	1.108500	1.108500	1.108500	1.108500	1.108500	1.108500	1.108500	1.108500	1.108500	1.108500
-53.000000	1.080500	1.080500	1.080500	1.080500	1.080500	1.080500	1.080500	1.080500	1.080500	1.080500	1.080500	1.080500	1.080500	1.080500	1.080500	1.080500	1.080500	1.080500	1.080500	1.080500	1.080500	1.080500	1.080500	1.080500	1.080500	1.080500	1.080500	1.080500	1.080500	1.080500	1.080500	1.080500	1.080500	1.080500	1.080500	1.080500	1.080500	1.080500	1.080500
-52.000000	1.052200	1.052200	1.052200	1.052200	1.052200	1.052200	1.052200	1.052200	1.052200	1.052200	1.052200	1.052200	1.052200	1.052200	1.052200	1.052200	1.052200	1.052200	1.052200	1.052200	1.052200	1.052200	1.052200	1.052200	1.052200	1.052200	1.052200	1.052200	1.052200	1.052200	1.052200	1.052200	1.052200	1.052200	1.052200	1.052200	1.052200	1.052200	1.052200
-51.000000	1.023600	1.023600	1.023600	1.023600	1.023600	1.023600	1.023600	1.023600	1.023600	1.023600	1.023600	1.023600	1.023600	1.023600	1.023600	1.023600	1.023600	1.023600	1.023600	1.023600	1.023600	1.023600	1.023600	1.023600	1.023600	1.023600	1.023600	1.023600	1.023600	1.023600	1.023600	1.023600	1.023600	1.023600	1.023600	1.023600	1.023600	1.023600	1.023600
-50.000000	0.994800	0.994800	0.994800	0.994800	0.994800	0.994800	0.994800	0.994800	0.994800	0.994800	0.994800	0.994800	0.994800	0.994800	0.994800	0.994800	0.994800	0.994800	0.994800	0.994800	0.994800	0.994800	0.994800	0.994800	0.994800	0.994800	0.994800	0.994800	0.994800	0.994800	0.994800	0.994800	0.994800	0.994800	0.994800	0.994800	0.994800	0.994800	0.994800
-49.000000	0.965800	0.965900	0.965900	0.965900	0.965900	0.965900	0.965900	0.965900	0.965900	0.965900	0.965900	0.965900	0.965900	0.965900	0.965900	0.965900	0.965900	0.965900	0.965900	0.965900	0.965900	0.965900	0.965900	0.965900	0.965900	0.965900	0.965900	0.965900	0.965900	0.965900	0.965900	0.965900	0.965900	0.965900	0.965900	0.965900	0.965900	0.965900	0.965900
-48.000000	0.936700	0.936700	0.936700	0.936700	0.936700	0.936700	0.936700	0.936700	0.936700	0.936700	0.936700	0.936700	0.936700	0.936700	0.936800	0.936800	0.936800	0.936800	0.936800	0.936800	0.936800	0.936800	0.936800	0.936800	0.936800	0.936800	0.936800	0.936800	0.936800	0.936800	0.936800	0.936800	0.936800	0.936800	0.936800	0.936800	0.936800	0.936800	0.936800
-47.000000	0.907500	0.907500	0.907500	0.907500	0.907500	0.907500	0.907500	0.907500	0.907500	0.907500	0.907500	0.907500	0.907500	0.907500	0.907500	0.907500	0.907500	0.907500	0.907500	0.907500	0.907500	0.907500	0.907500	0.907500	0.907500	0.907500	0.907500	0.907500	0.907500	0.907500	0.907500	0.907500	0.907500	0.907500	0.907500	0.907500	0.907500	0.907500	0.907500
-46.000000	0.878200	0.878200	0.878200	0.878200	0.878200	0.878200	0.878200	0.878200	0.878200	0.878200	0.878200	0.878200	0.878200	0.878200	0.878200	0.878200	0.878200	0.878200	0.878200	0.878200	0.878200	0.878200	0.878200	0.878200	0.878200	0.878200	0.878200	0.878200	0.878200	0.878200	0.878200	0.878200	0.878200	0.878200	0.878200	0.878200	0.878200	0.878200	0.878200
-45.000000	0.848800	0.848800	0.848900	0.848900	0.848900	0.848900	0.848900	0.848900	0.848900	0.848900	0.848900	0.848900	0.848900	0.848900	0.848900	0.848900	0.848900	0.848900	0.848900	0.848900	0.848900	0.848900	0.848900	0.848900	0.848900	0.848900	0.848900	0.848900	0.848900	0.848900	0.848900	0.848900	0.848900	0.848900	0.848900	0.848900	0.848900	0.848900	0.848900
-44.000000	0.819500	0.819500	0.819500	0.819500	0.819500	0.819500	0.819500	0.819500	0.819500	0.819500	0.819500	0.819500	0.819500	0.819500	0.819500	0.819500	0.819500	0.819500	0.819500	0.819500	0.819500	0.819500	0.819500	0.819500	0.819500	0.819500	0.819500	0.819500	0.819500	0.819500	0.819500	0.819500	0.819500	0.819500	0.819500	0.819500	0.819500	0.819500	0.819500
-43.000000	0.790200	0.790200	0.790200	0.790200	0.790200	0.790200	0.790200	0.790200	0.790200	0.790200	0.790200	0.790200	0.790200	0.790200	0.790200	0.790200	0.790200	0.790200	0.790200	0.790200	0.790200	0.790200	0.790200	0.790200	0.790200	0.790200	0.790200	0.790200	0.790200	0.790200	0.790200	0.790200	0.790200	0.790200	0.790200	0.790200	0.790200	0.790200	0.790200
-42.000000	0.760900	0.760900	0.760900	0.760900	0.760900	0.760900	0.760900	0.760900	0.760900	0.760900	0.760900	0.760900	0.760900	0.760900	0.760900	0.760900	0.760900	0.760900	0.760900	0.760900	0.760900	0.760900	0.760900	0.760900	0.760900	0.760900	0.760900	0.760900	0.760900	0.760900	0.760900	0.760900	0.760900	0.760900	0.760900	0.760900	0.760900	0.760900	0.760900
-41.000000	0.731700	0.731700	0.731700	0.731700	0.731700	0.731700	0.731700	0.731700	0.731700	0.731700	0.731700	0.731700	0.731700	0.731700	0.731700	0.731700	0.731700	0.731700	0.731700	0.731700	0.731700	0.731700	0.731700	0.731700	0.731700	0.731800	0.731800	0.731700	0.731700	0.731700	0.731700	0.731700	0.731700	0.731700	0.731700	0.731700	0.731700	0.731700	0.731700
-40.000000	0.702700	0.702700	0.702700	0.702700	0.702700	0.702700	0.702700	0.702700	0.702700	0.702700	0.702700	0.702700	0.702700	0.702700	0.702700	0.702700	0.702700	0.702700	0.702700	0.702700	0.702700	0.702700	0.702700	0.702700	0.702700	0.702700	0.702700	0.702700	0.702700	0.702700	0.702700	0.702700	0.702700	0.702700	0.702700	0.702700	0.702700	0.702700	0.702700
-39.000000	0.673800	0.673800	0.673800	0.673800	0.673800	0.673800	0.673800	0.673800	0.673800	0.673800	0.673800	0.673800	0.673800	0.673800	0.673800	0.673800	0.673800	0.673800	0.673800	0.673800	0.673800	0.673800	0.673800	0.673800	0.673800	0.673800	0.673800	0.673800	0.673800	0.673800	0.673800	0.673800	0.673800	0.673800	0.673800	0.673800	0.673800	0.673800	0.673800
-38.000000	0.645100	0.645100	0.645200	0.645200	0.645200	0.645200	0.645200	0.645200	0.645200	0.645200	0.645200	0.645200	0.645200	0.645200	0.645200	0.645200	0.645200	0.645200	0.645200	0.645200	0.645200	0.645200	0.645200	0.645200	0.645200	0.645200	0.645200	0.645200	0.645200	0.645200	0.645200	0.645200	0.645200	0.645200	0.645200	0.645200	0.645200	0.645200	0.645200
-37.000000	0.616700	0.616700	0.616700	0.616700	0.616700	0.616700	0.616700	0.616700	0.616700	0.616700	0.616700	0.616700	0.616700	0.616700	0.616800	0.616800	0.616800	0.616800	0.616800	0.616800	0.616800	0.616800	0.616800	0.616800	0.616800	0.616800	0.616800	0.616700	0.616700	0.616700	0.616700	0.616700	0.616700	0.616700	0.616700	0.616700	0.616700	0.616700	0.616700
-36.000000	0.588600	0.588600	0.588600	0.588600	0.588600	0.588600	0.588600	0.588600	0.588600	0.588600	0.588600	0.588600	0.588600	0.588600	0.588600	0.588600	0.588600	0.588600	0.588600	0.588600	0.588600	0.588600	0.588600	0.588600	0.588600	0.588600	0.588600	0.588600	0.588600	0.588600	0.588600	0.588600	0.588600	0.588600	0.588600	0.588600	0.588600	0.588600	0.588600
-35.000000	0.560700	0.560700	0.560700	0.560700	0.560700	0.560700	0.560700	0.560700	0.560700	0.560700	0.560700	0.560700	0.560700	0.560700	0.560700	0.560700	0.560700	0.560700	0.560700	0.560700	0.560700	0.560700	0.560700	0.560700	0.560700	0.560700	0.560700	0.560700	0.560700	0.560700	0.560700	0.560700	0.560700	0.560700	0.560700	0.560700	0.560700	0.560700	0.560700
-34.000000	0.533200	0.533200	0.533200	0.533200	0.533200	0.533200	0.533200	0.533200	0.533200	0.533200	0.533200	0.533200	0.533200	0.533200	0.533200	0.533200	0.533200	0.533200	0.533200	0.533200	0.533200	0.533200	0.533200	0.533200	0.533200	0.533200	0.533200	0.533200	0.533200	0.533200	0.533200	0.533200	0.533200	0.533200	0.533200	0.533200	0.533200	0.533200	0.533200
-33.000000	0.506000	0.506000	0.506000	0.506000	0.506000	0.506000	0.506000	0.506000	0.506000	0.506100	0.506100	0.506100	0.506100	0.506100	0.506100	0.506100	0.506100	0.506100	0.506100	0.506100	0.506100	0.506100	0.506100	0.506100	0.506100	0.506100	0.506100	0.506000	0.506000	0.506000	0.506000	0.506000	0.506000	0.506000	0.506000	0.506000	0.506000	0.506000	0.506000
-32.000000	0.479300	0.479200	0.479300	0.479300	0.479300	0.479300	0.479300	0.479300	0.479300	0.479300	0.479300	0.479300	0.479300	0.479300	0.479300	0.479300	0.479300	0.479300	0.479300	0.479300	0.479300	0.479300	0.479300	0.479300	0.479300	0.479300	0.479300	0.479300	0.479300	0.479300	0.479300	0.479300	0.479300	0.479300	0.479300	0.479300	0.479300	0.479300	0.479300
-31.000000	0.453000	0.452900	0.452900	0.452900	0.452900	0.452900	0.452900	0.453000	0.453000	0.453000	0.453000	0.453000	0.453000	0.453000	0.453000	0.453000	0.453000	0.453000	0.453000	0.453000	0.453000	0.453000	0.453000	0.453000	0.453000	0.453000	0.453000	0.452900	0.452900	0.452900	0.452900	0.452900	0.452900	0.452900	0.452900	0.452900	0.452900	0.452900	0.452900
-30.000000	0.427100	0.427000	0.427000	0.427000	0.427100	0.427100	0.427100	0.427100	0.427100	0.427100	0.427100	0.427100	0.427100	0.427100	0.427100	0.427100	0.427100	0.427100	0.427100	0.427100	0.427100	0.427100	0.427100	0.427100	0.427100	0.427100	0.427100	0.427100	0.427100	0.427100	0.427100	0.427100	0.427100	0.427100	0.427100	0.427100	0.427100	0.427100	0.427100
-29.000000	0.401700	0.401600	0.401600	0.401600	0.401700	0.401700	0.401700	0.401700	0.401700	0.401700	0.401700	0.401700	0.401700	0.401700	0.401700	0.401700	0.401700	0.401700	0.401700	0.401700	0.401700	0.401700	0.401700	0.401700	0.401700	0.401700	0.401700	0.401600	0.401600	0.401600	0.401700	0.401700	0.401700	0.401700	0.401700	0.401700	0.401700	0.401700	0.401700
-28.000000	0.376900	0.376700	0.376700	0.376800	0.376800	0.376800	0.376800	0.376800	0.376800	0.376800	0.376800	0.376800	0.376800	0.376800	0.376800	0.376800	0.376800	0.376800	0.376800	0.376800	0.376800	0.376800	0.376800	0.376800	0.376800	0.376800	0.376800	0.376700	0.376700	0.376700	0.376700	0.376700	0.376700	0.376700	0.376800	0.376800	0.376800	0.376800	0.376800
-27.000000	0.352500	0.352300	0.352400	0.352400	0.352400	0.352400	0.352400	0.352400	0.352400	0.352400	0.352400	0.352400	0.352500	0.352500	0.352500	0.352500	0.352500	0.352500	0.352500	0.352500	0.352500	0.352500	0.352500	0.352500	0.352500	0.352500	0.352500	0.352400	0.352400	0.352400	0.352400	0.352400	0.352400	0.352400	0.352400	0.352400	0.352400	0.352400	0.352400
-26.000000	0.328700	0.328500	0.328500	0.328600	0.328600	0.328600	0.328600	0.328600	0.328600	0.328600	0.328600	0.328600	0.328600	0.328600	0.328600	0.328600	0.328700	0.328700	0.328700	0.328700	0.328700	0.328700	0.328700	0.328700	0.328700	0.328700	0.328700	0.328500	0.328500	0.328500	0.328500	0.328500	0.328500	0.328500	0.328500	0.328500	0.328500	0.328500	0.328500
-25.000000	0.305500	0.305200	0.305300	0.305300	0.305300	0.305300	0.305300	0.305400	0.305400	0.305400	0.305400	0.305400	0.305400	0.305400	0.305400	0.305400	0.305400	0.305400	0.305400	0.305400	0.305400	0.305400	0.305400	0.305400	0.305400	0.305400	0.305400	0.305200	0.305200	0.305200	0.305200	0.305200	0.305200	0.305200	0.305200	0.305200	0.305200	0.305200	0.305200
-24.000000	0.282900	0.282500	0.282600	0.282600	0.282600	0.282600	0.282600	0.282700	0.282700	0.282700	0.282700	0.282700	0.282700	0.282700	0.282700	0.282700	0.282700	0.282700	0.282700	0.282700	0.282700	0.282700	0.282700	0.282700	0.282700	0.282700	0.282700	0.282500	0.282500	0.282500	0.282500	0.282500	0.282500	0.282500	0.282500	0.282500	0.282500	0.282500	0.282500
-23.000000	0.260900	0.260300	0.260400	0.260400	0.260500	0.260500	0.260500	0.260500	0.260500	0.260600	0.260600	0.260600	0.260600	0.260600	0.260600	0.260600	0.260600	0.260600	0.260600	0.260600	0.260600	0.260600	0.260600	0.260600	0.260600	0.260600	0.260600	0.260300	0.260300	0.260300	0.260300	0.260300	0.260300	0.260300	0.260300	0.260300	0.260300	0.260300	0.260300
-22.000000	0.239500	0.238700	0.238800	0.238800	0.238900	0.238900	0.238900	0.239000	0.239000	0.239000	0.239000	0.239000	0.239000	0.239000	0.239000	0.239000	0.239000	0.239000	0.239100	0.239100	0.239100	0.239100	0.239100	0.239100	0.239100	0.239100	0.239100	0.238600	0.238600	0.238600	0.238600	0.238600	0.238600	0.238600	0.238600	0.238600	0.238600	0.238600	0.238600
-21.000000	0.218600	0.217600	0.217700	0.217800	0.217800	0.217800	0.217900	0.217900	0.217900	0.217900	0.217900	0.218000	0.218000	0.218000	0.218000	0.218000	0.218000	0.218000	0.218000	0.218000	0.218000	0.218000	0.218000	0.218000	0.218100	0.218100	0.218100	0.217400	0.217400	0.217400	0.217400	0.217400	0.217400	0.217400	0.217400	0.217400	0.217500	0.217500	0.217500
-20.000000	0.198300	0.196900	0.197000	0.197100	0.197200	0.197200	0.197300	0.197300	0.197300	0.197300	0.197300	0.197400	0.197400	0.197400	0.197400	0.197400	0.197400	0.197400	0.197400	0.197500	0.197500	0.197500	0.197500	0.197500	0.197500	0.197500	0.197500	0.196600	0.196600	0.196600	0.196600	0.196600	0.196600	0.196600	0.196600	0.196600	0.196600	0.196700	0.196700
-19.000000	0.178500	0.176600	0.176700	0.176800	0.176900	0.176900	0.177000	0.177000	0.177100	0.177100	0.177100	0.177100	0.177200	0.177200	0.177200	0.177200	0.177200	0.177200	0.177200	0.177200	0.177300	0.177300	0.177300	0.177300	0.177300	0.177300	0.177300	0.176000	0.176000	0.176100	0.176100	0.176100	0.176100	0.176100	0.176100	0.176100	0.176100	0.176100	0.176100
-18.000000	0.159200	0.156300	0.156500	0.156700	0.156800	0.156800	0.156900	0.157000	0.157000	0.157000	0.157100	0.157100	0.157100	0.157100	0.157200	0.157200	0.157200	0.157200	0.157200	0.157200	0.157300	0.157300	0.157300	0.157300	0.157300	0.157300	0.157300	0.155500	0.155500	0.155500	0.155500	0.155500	0.155500	0.155600	0.155600	0.155600	0.155600	0.155600	0.155600
-17.000000	0.140000	0.136000	0.136300	0.136400	0.136600	0.136700	0.136700	0.136800	0.136900	0.136900	0.137000	0.137000	0.137000	0.137100	0.137100	0.137100	0.137100	0.137200	0.137200	0.137200	0.137200	0.137200	0.137200	0.137300	0.137300	0.137300	0.137300	0.134600	0.134600	0.134700	0.134700	0.134700	0.134700	0.134700	0.134700	0.134700	0.134700	0.134700	0.134800
-16.000000	0.121000	0.115100	0.115500	0.115700	0.115900	0.116000	0.116200	0.116200	0.116300	0.116400	0.116400	0.116500	0.116500	0.116600	0.116600	0.116600	0.116700	0.116700	0.116700	0.116700	0.116800	0.116800	0.116800	0.116800	0.116800	0.116900	0.116900	0.113000	0.113000	0.113000	0.113000	0.113100	0.113100	0.113100	0.113100	0.113100	0.113100	0.113100	0.113200
-15.000000	0.101800	0.093400	0.093900	0.094200	0.094400	0.094600	0.094700	0.094900	0.095000	0.095000	0.095100	0.095200	0.095200	0.095300	0.095300	0.095400	0.095400	0.095500	0.095500	0.095500	0.095500	0.095600	0.095600	0.095600	0.095600	0.095700	0.095700	0.090100	0.090200	0.090200	0.090200	0.090200	0.090300	0.090300	0.090300	0.090300	0.090300	0.090300	0.090400
-14.000000	0.082200	0.070800	0.071300	0.071700	0.072000	0.072200	0.072400	0.072500	0.072700	0.072800	0.072900	0.072900	0.073000	0.073100	0.073100	0.073200	0.073200	0.073300	0.073300	0.073400	0.073400	0.073400	0.073500	0.073500	0.073500	0.073500	0.073600	0.066300	0.066300	0.066300	0.066300	0.066400	0.066400	0.066400	0.066400	0.066500	0.066500	0.066500	0.066500
-13.000000	0.062400	0.048500	0.049100	0.049500	0.049800	0.050100	0.050200	0.050400	0.050500	0.050600	0.050700	0.050800	0.050900	0.051000	0.051000	0.051100	0.051100	0.051200	0.051200	0.051200	0.051300	0.051300	0.051300	0.051400	0.051400	0.051400	0.051500	0.043400	0.043500	0.043500	0.043500	0.043500	0.043600	0.043600	0.043600	0.043600	0.043600	0.043600	0.043700
-12.000000	0.043500	0.030100	0.030500	0.030800	0.031100	0.031200	0.031400	0.031500	0.031600	0.031700	0.031700	0.031800	0.031900	0.031900	0.032000	0.032000	0.032100	0.032100	0.032100	0.032200	0.032200	0.032200	0.032300	0.032300	0.032300	0.032300	0.032300	0.025900	0.026000	0.026000	0.026000	0.026000	0.026000	0.026000	0.026000	0.026100	0.026100	0.026100	0.026100
-11.000000	0.027900	0.018800	0.019000	0.019200	0.019300	0.019400	0.019400	0.019500	0.019600	0.019600	0.019600	0.019700	0.019700	0.019700	0.019700	0.019800	0.019800	0.019800	0.019800	0.019800	0.019900	0.019900	0.019900	0.019900	0.019900	0.019900	0.019900	0.016700	0.016700	0.016700	0.016700	0.016700	0.016700	0.016700	0.016800	0.016800	0.016800	0.016800	0.016800
-10.000000	0.043000	0.033200	0.029500	0.025500	0.022800	0.025100	0.022100	0.020200	0.018900	0.017900	0.017100	0.016500	0.016000	0.015500	0.015200	0.014900	0.014600	0.014400	0.014200	0.014000	0.014000	0.013900	0.013900	0.013900	0.013900	0.013900	0.013900	0.013900	0.013900	0.013800	0.014000	0.013800	0.013800	0.013800	0.013800	0.013800	0.013500	0.013800	0.013800
-9.500000	0.037050	0.028800	0.026800	0.023600	0.021400	0.019800	0.021000	0.019400	0.018300	0.017400	0.016700	0.016100	0.015600	0.015200	0.014800	0.014500	0.014200	0.013900	0.013700	0.013500	0.013300	0.013200	0.013000	0.012900	0.012700	0.012600	0.012500	0.012400	0.012300	0.012700	0.012700	0.012800	0.012000	0.011900	0.012700	0.011800	0.012400	0.012500	0.012200
-9.000000	0.031100	0.026800	0.025900	0.022300	0.020400	0.018900	0.017800	0.017000	0.016950	0.017200	0.016500	0.015900	0.015400	0.015000	0.014600	0.014300	0.014000	0.013700	0.013400	0.013200	0.013000	0.012800	0.012700	0.012500	0.012400	0.012300	0.012100	0.012000	0.011900	0.011800	0.011700	0.011700	0.011600	0.011500	0.011400	0.011400	0.011300	0.011200	0.011200
-8.500000	0.028500	0.024800	0.021700	0.021500	0.019400	0.018000	0.017000	0.016200	0.015600	0.015100	0.014800	0.014700	0.014700	0.014800	0.013950	0.014100	0.013800	0.013500	0.013200	0.013000	0.012800	0.012600	0.012400	0.012200	0.012100	0.012000	0.011800	0.011700	0.011600	0.011500	0.011400	0.011300	0.011300	0.011200	0.011100	0.011000	0.011000	0.010900	0.010800
-8.000000	0.026100	0.023100	0.020300	0.019100	0.018500	0.017100	0.016200	0.015500	0.014900	0.014400	0.014100	0.013800	0.013600	0.013400	0.013300	0.013300	0.013300	0.013200	0.012900	0.012700	0.012500	0.012300	0.012100	0.012000	0.011800	0.011700	0.011600	0.011400	0.011300	0.011200	0.011100	0.011100	0.011000	0.010900	0.010800	0.010800	0.010700	0.010600	0.010600
-7.500000	0.024200	0.021700	0.019000	0.017400	0.017500	0.016300	0.015400	0.014700	0.014200	0.013800	0.013400	0.013100	0.012900	0.012700	0.012600	0.012500	0.012400	0.012300	0.012200	0.012200	0.012200	0.012000	0.011800	0.011700	0.011500	0.011400	0.011300	0.011100	0.011000	0.010900	0.010900	0.010800	0.010700	0.010600	0.010500	0.010500	0.010400	0.010300	0.010300
-7.000000	0.021800	0.019000	0.017700	0.016300	0.015600	0.015600	0.014700	0.014000	0.013600	0.013200	0.012900	0.012600	0.012400	0.012200	0.012000	0.011900	0.011800	0.011700	0.011600	0.011500	0.011400	0.011400	0.011300	0.011300	0.011200	0.011100	0.011000	0.010900	0.010800	0.010700	0.010600	0.010500	0.010400	0.010300	0.010300	0.010200	0.010200	0.010100	0.010000
-6.500000	0.020100	0.017900	0.016500	0.015400	0.014600	0.014000	0.013700	0.013500	0.013100	0.012700	0.012400	0.012200	0.011900	0.011700	0.011600	0.011400	0.011300	0.011200	0.011000	0.010900	0.010900	0.010800	0.010700	0.010600	0.010600	0.010600	0.010500	0.010500	0.010400	0.010400	0.010300	0.010200	0.010200	0.010100	0.010000	0.010000	0.009900	0.009800	0.009800
-6.000000	0.018300	0.016400	0.015400	0.014400	0.013900	0.013500	0.013000	0.012600	0.012300	0.012100	0.011900	0.011700	0.011600	0.011400	0.011300	0.011200	0.011000	0.010900	0.010800	0.010700	0.010600	0.010500	0.010400	0.010300	0.010200	0.010100	0.010100	0.010000	0.009900	0.009900	0.009800	0.009800	0.009700	0.009600	0.009600	0.009600	0.009500	0.009500	0.009400
-5.500000	0.016800	0.015000	0.014200	0.013700	0.013100	0.012750	0.012400	0.012100	0.011900	0.011700	0.011500	0.011300	0.011200	0.011000	0.010900	0.010800	0.010600	0.010500	0.010500	0.010400	0.010300	0.010200	0.010100	0.010100	0.010000	0.009900	0.009900	0.009800	0.009700	0.009700	0.009600	0.009550	0.009500	0.009400	0.009400	0.009400	0.009300	0.009300	0.009200
-5.000000	0.016400	0.014700	0.013700	0.013000	0.012400	0.012000	0.011600	0.011400	0.011200	0.011100	0.011000	0.010800	0.010700	0.010600	0.010500	0.010400	0.010300	0.010200	0.010100	0.010100	0.010000	0.009900	0.009800	0.009800	0.009700	0.009600	0.009600	0.009500	0.009500	0.009400	0.009400	0.009300	0.009300	0.009200	0.009200	0.009100	0.009100	0.009100	0.009000
-4.500000	0.016200	0.014500	0.013500	0.012800	0.012300	0.011800	0.011500	0.011200	0.011000	0.010700	0.010500	0.010400	0.010200	0.010100	0.009900	0.009900	0.009800	0.009700	0.009700	0.009600	0.009500	0.009500	0.009400	0.009400	0.009300	0.009300	0.009200	0.009200	0.009200	0.009100	0.009100	0.009000	0.009000	0.009000	0.008900	0.008900	0.008900	0.008800	0.008800
-4.000000	0.016000	0.014300	0.013400	0.012700	0.012100	0.011700	0.011400	0.011100	0.010900	0.010600	0.010500	0.010300	0.010100	0.010000	0.009900	0.009700	0.009600	0.009500	0.009400	0.009300	0.009300	0.009200	0.009100	0.009000	0.009000	0.008900	0.008800	0.008800	0.008700	0.008700	0.008700	0.008700	0.008600	0.008600	0.008600	0.008500	0.008500	0.008500	0.008400
-3.500000	0.015800	0.014200	0.013200	0.012600	0.012000	0.011600	0.011300	0.011000	0.010800	0.010600	0.010400	0.010200	0.010100	0.009900	0.009800	0.009700	0.009600	0.009500	0.009400	0.009300	0.009200	0.009100	0.009100	0.009000	0.008900	0.008900	0.008800	0.008700	0.008700	0.008600	0.008600	0.008500	0.008500	0.008400	0.008400	0.008400	0.008300	0.008300	0.008200
-3.000000	0.015700	0.014100	0.013100	0.012500	0.012000	0.011600	0.011200	0.011000	0.010700	0.010500	0.010300	0.010200	0.010000	0.009900	0.009700	0.009600	0.009500	0.009400	0.009300	0.009200	0.009200	0.009100	0.009000	0.008900	0.008900	0.008800	0.008800	0.008700	0.008600	0.008600	0.008500	0.008500	0.008400	0.008400	0.008400	0.008300	0.008300	0.008200	0.008200
-2.500000	0.015500	0.014000	0.013100	0.012400	0.011900	0.011500	0.011200	0.010900	0.010700	0.010500	0.010300	0.010100	0.010000	0.009800	0.009700	0.009600	0.009500	0.009400	0.009300	0.009200	0.009100	0.009100	0.009000	0.008900	0.008900	0.008800	0.008700	0.008700	0.008600	0.008600	0.008500	0.008500	0.008400	0.008400	0.008300	0.008300	0.008300	0.008200	0.008200
-2.000000	0.015500	0.013900	0.013000	0.012400	0.011900	0.011500	0.011200	0.010900	0.010600	0.010400	0.010300	0.010100	0.010000	0.009800	0.009700	0.009600	0.009500	0.009400	0.009300	0.009200	0.009100	0.009000	0.009000	0.008900	0.008800	0.008800	0.008700	0.008700	0.008600	0.008600	0.008500	0.008500	0.008400	0.008400	0.008300	0.008300	0.008200	0.008200	0.008200
-1.500000	0.015400	0.013900	0.013000	0.012300	0.011800	0.011500	0.011100	0.010900	0.010600	0.010400	0.010300	0.010100	0.009900	0.009800	0.009700	0.009600	0.009500	0.009400	0.009300	0.009200	0.009100	0.009000	0.009000	0.008900	0.008800	0.008800	0.008700	0.008700	0.008600	0.008600	0.008500	0.008500	0.008400	0.008400	0.008300	0.008300	0.008200	0.008200	0.008200
-1.000000	0.015400	0.013900	0.013000	0.012300	0.011800	0.011500	0.011100	0.010900	0.010600	0.010400	0.010200	0.010100	0.009900	0.009800	0.009700	0.009600	0.009500	0.009400	0.009300	0.009200	0.009100	0.009000	0.009000	0.008900	0.008800	0.008800	0.008700	0.008700	0.008600	0.008600	0.008500	0.008500	0.008400	0.008400	0.008300	0.008300	0.008200	0.008200	0.008200
-0.500000	0.015400	0.013900	0.013000	0.012300	0.011800	0.011500	0.011100	0.010900	0.010600	0.010400	0.010300	0.010100	0.010000	0.009800	0.009700	0.009600	0.009500	0.009400	0.009300	0.009200	0.009100	0.009100	0.009000	0.008900	0.008800	0.008800	0.008700	0.008700	0.008600	0.008600	0.008500	0.008500	0.008400	0.008400	0.008300	0.008300	0.008300	0.008200	0.008200
0.000000	0.015400	0.013900	0.013000	0.012400	0.011900	0.011500	0.011200	0.010900	0.010700	0.010500	0.010300	0.010100	0.010000	0.009800	0.009700	0.009600	0.009500	0.009400	0.009300	0.009200	0.009200	0.009100	0.009000	0.008900	0.008900	0.008800	0.008800	0.008700	0.008600	0.008600	0.008500	0.008500	0.008500	0.008400	0.008400	0.008300	0.008300	0.008200	0.008200
0.500000	0.015500	0.014000	0.013100	0.012400	0.011900	0.011500	0.011200	0.010900	0.010700	0.010500	0.010300	0.010200	0.010000	0.009900	0.009800	0.009600	0.009500	0.009400	0.009400	0.009300	0.009200	0.009100	0.009000	0.009000	0.008900	0.008800	0.008800	0.008700	0.008700	0.008600	0.008600	0.008500	0.008500	0.008400	0.008400	0.008400	0.008300	0.008300	0.008200
1.000000	0.015600	0.014100	0.013100	0.012500	0.012000	0.011600	0.011300	0.011000	0.010800	0.010600	0.010400	0.010200	0.010100	0.009900	0.009800	0.009700	0.009600	0.009500	0.009400	0.009300	0.009200	0.009200	0.009100	0.009000	0.008900	0.008900	0.008800	0.008800	0.008700	0.008700	0.008600	0.008600	0.008500	0.008500	0.008400	0.008400	0.008400	0.008300	0.008300
1.500000	0.015700	0.014200	0.013200	0.012600	0.012100	0.011700	0.011300	0.011100	0.010800	0.010600	0.010400	0.010300	0.010100	0.010000	0.009900	0.009800	0.009600	0.009500	0.009500	0.009400	0.009300	0.009200	0.009100	0.009100	0.009000	0.008900	0.008900	0.008800	0.008800	0.008700	0.008700	0.008600	0.008600	0.008500	0.008500	0.008400	0.008400	0.008400	0.008300
2.000000	0.015800	0.014300	0.013300	0.012700	0.012200	0.011800	0.011400	0.011200	0.010900	0.010700	0.010500	0.010400	0.010200	0.010100	0.009900	0.009800	0.009700	0.009600	0.009500	0.009400	0.009400	0.009300	0.009200	0.009100	0.009100	0.009000	0.008900	0.008900	0.008800	0.008800	0.008700	0.008700	0.008600	0.008600	0.008500	0.008500	0.008500	0.008400	0.008400
2.500000	0.016000	0.014400	0.013500	0.012800	0.012300	0.011900	0.011500	0.011300	0.011000	0.010800	0.010600	0.010400	0.010300	0.010200	0.010000	0.009900	0.009800	0.009700	0.009600	0.009500	0.009400	0.009400	0.009300	0.009200	0.009100	0.009100	0.009000	0.009000	0.008900	0.008800	0.008800	0.008700	0.008700	0.008700	0.008600	0.008600	0.008500	0.008500	0.008400
3.000000	0.016200	0.014600	0.013600	0.012900	0.012400	0.012000	0.011700	0.011400	0.011100	0.010900	0.010700	0.010600	0.010400	0.010300	0.010100	0.010000	0.009900	0.009800	0.009700	0.009600	0.009500	0.009400	0.009400	0.009300	0.009200	0.009200	0.009100	0.009000	0.009000	0.008900	0.008900	0.008800	0.008800	0.008700	0.008700	0.008600	0.008600	0.008600	0.008500
3.500000	0.016400	0.014800	0.013800	0.013100	0.012600	0.012100	0.011800	0.011500	0.011300	0.011000	0.010800	0.010700	0.010500	0.010400	0.010200	0.010100	0.010000	0.009900	0.009800	0.009700	0.009600	0.009500	0.009500	0.009400	0.009300	0.009300	0.009200	0.009100	0.009100	0.009000	0.009000	0.008900	0.008900	0.008800	0.008800	0.008700	0.008700	0.008600	0.008600
4.000000	0.016700	0.015000	0.014000	0.013300	0.012700	0.012300	0.012000	0.011700	0.011400	0.011200	0.011000	0.010800	0.010600	0.010500	0.010400	0.010200	0.010100	0.010000	0.009900	0.009800	0.009700	0.009600	0.009600	0.009500	0.009400	0.009400	0.009300	0.009200	0.009200	0.009100	0.009100	0.009000	0.009000	0.008900	0.008900	0.008800	0.008800	0.008700	0.008700
4.500000	0.017000	0.015300	0.014200	0.013500	0.012900	0.012500	0.012100	0.011800	0.011600	0.011300	0.011100	0.010900	0.010800	0.010600	0.010500	0.010400	0.010300	0.010100	0.010000	0.009900	0.009900	0.009800	0.009700	0.009600	0.009500	0.009500	0.009400	0.009300	0.009300	0.009200	0.009200	0.009100	0.009100	0.009000	0.009000	0.008900	0.008900	0.008800	0.008800
5.000000	0.017300	0.015600	0.014500	0.013700	0.013200	0.012700	0.012300	0.012000	0.011800	0.011500	0.011300	0.011100	0.010900	0.010800	0.010700	0.010500	0.010400	0.010300	0.010200	0.010100	0.010000	0.009900	0.009800	0.009700	0.009700	0.009600	0.009500	0.009500	0.009400	0.009400	0.009400	0.009300	0.009300	0.009300	0.009300	0.009200	0.009200	0.009200	0.009100
5.500000	0.017700	0.015900	0.014800	0.014000	0.013400	0.012900	0.012600	0.012200	0.012000	0.011700	0.011500	0.011300	0.011100	0.011000	0.010800	0.010700	0.010600	0.010500	0.010500	0.010400	0.010400	0.010300	0.010200	0.010200	0.010200	0.010100	0.010100	0.010000	0.010000	0.009900	0.009900	0.009900	0.009900	0.009800	0.009800	0.009800	0.009700	0.009700	0.009700
6.000000	0.018200	0.016300	0.015100	0.014300	0.013700	0.013200	0.012800	0.012500	0.012200	0.012100	0.012000	0.011800	0.011700	0.011600	0.011500	0.011400	0.011400	0.011300	0.011200	0.011100	0.011000	0.011000	0.010900	0.010900	0.010800	0.010700	0.010700	0.010600	0.010500	0.010500	0.010400	0.010400	0.010300	0.010300	0.010200	0.010200	0.010200	0.010100	0.010100
6.500000	0.018700	0.016700	0.015500	0.014600	0.014200	0.013900	0.013700	0.013400	0.013200	0.013000	0.012800	0.012700	0.012500	0.012300	0.012200	0.012100	0.011900	0.011800	0.011700	0.011600	0.011500	0.011500	0.011400	0.011300	0.011200	0.011200	0.011100	0.011000	0.011000	0.010900	0.010800	0.010800	0.010700	0.010700	0.010600	0.010500	0.010500	0.010400	0.010400
7.000000	0.019300	0.017600	0.016700	0.016100	0.015400	0.015000	0.014700	0.014300	0.013900	0.013700	0.013500	0.013300	0.013100	0.013000	0.012800	0.012700	0.012500	0.012400	0.012200	0.012100	0.012000	0.011900	0.011800	0.011700	0.011600	0.011500	0.011400	0.011400	0.011300	0.011200	0.011200	0.011100	0.011100	0.011000	0.011000	0.010900	0.010900	0.010800	0.010800
7.500000	0.021400	0.019400	0.018100	0.017500	0.016500	0.015900	0.015400	0.015200	0.014900	0.014500	0.014200	0.013900	0.013700	0.013400	0.013300	0.013100	0.012900	0.012800	0.012700	0.012600	0.012500	0.012400	0.012300	0.012200	0.012200	0.012100	0.012000	0.012000	0.011900	0.011667	0.011633	0.011700	0.011600	0.011450	0.011500	0.011400	0.011300	0.011300	0.011200
8.000000	0.023600	0.021000	0.019900	0.018400	0.017500	0.017000	0.016800	0.016100	0.015500	0.015100	0.014800	0.014500	0.014200	0.014000	0.013800	0.013700	0.013600	0.013400	0.013300	0.013200	0.013100	0.013000	0.013000	0.012900	0.012700	0.012600	0.012450	0.012400	0.012300	0.012133	0.012067	0.012100	0.012000	0.011900	0.011800	0.011800	0.011700	0.011600	0.011600
8.500000	0.025500	0.022700	0.021200	0.019600	0.018900	0.018400	0.017500	0.016800	0.016200	0.015800	0.015500	0.015200	0.014900	0.014700	0.014600	0.014400	0.014300	0.014200	0.014200	0.014000	0.013650	0.013500	0.013500	0.013300	0.013200	0.013100	0.012900	0.012800	0.012700	0.012600	0.012500	0.012400	0.012400	0.012300	0.012200	0.012100	0.012100	0.012000	0.011900
9.000000	0.028200	0.025600	0.022600	0.021200	0.020700	0.019300	0.018300	0.017600	0.017000	0.016600	0.016300	0.016000	0.015900	0.016000	0.015600	0.015300	0.015000	0.014800	0.014600	0.014400	0.014200	0.014000	0.013800	0.013700	0.013600	0.013400	0.013300	0.013200	0.013100	0.013000	0.012900	0.012800	0.012700	0.012700	0.012600	0.012500	0.012400	0.012400	0.012300
9.500000	0.030400	0.027300	0.024300	0.023800	0.021600	0.020300	0.019300	0.018600	0.018300	0.018500	0.017800	0.017200	0.016700	0.016300	0.016000	0.015700	0.015400	0.015200	0.015000	0.014800	0.014600	0.014400	0.014300	0.014100	0.014000	0.013900	0.013800	0.013700	0.013600	0.013500	0.013400	0.013400	0.013600	0.013600	0.013600	0.013600	0.013200	0.013200	0.013050
10.000000	0.032900	0.029500	0.027900	0.025300	0.023200	0.021600	0.020900	0.021700	0.020300	0.019300	0.018500	0.017900	0.017400	0.017000	0.016600	0.016300	0.016100	0.015800	0.015600	0.015500	0.015300	0.015200	0.015100	0.015000	0.015000	0.014900	0.014900	0.014800	0.014800	0.014700	0.014700	0.014700	0.014700	0.014700	0.014700	0.014700	0.014000	0.014000	0.013800
10.500000	0.039700	0.032000	0.030600	0.027600	0.025200	0.023800	0.025200	0.022900	0.021400	0.020300	0.019500	0.018800	0.018300	0.017900	0.017500	0.017200	0.017000	0.016800	0.016600	0.016500	0.016300	0.016200	0.016200	0.016100	0.016000	0.016000	0.015900	0.015900	0.015900	0.015900	0.016000	0.016000	0.015550	0.015450	0.015300	0.015100	0.014800	0.014800	0.014550
11.000000	0.043700	0.035200	0.033300	0.030200	0.027600	0.027800	0.026700	0.024500	0.022900	0.021800	0.020800	0.020100	0.019500	0.019000	0.018600	0.018300	0.018100	0.017900	0.017700	0.017600	0.017500	0.017400	0.017300	0.017300	0.017300	0.017300	0.017300	0.017400	0.017500	0.017050	0.016950	0.016700	0.016400	0.016200	0.016100	0.015800	0.015600	0.015500	0.015300
11.500000	0.049500	0.039500	0.036200	0.032700	0.030700	0.032000	0.029100	0.026800	0.025200	0.023800	0.022700	0.021800	0.021000	0.020400	0.019900	0.019500	0.019300	0.019100	0.018900	0.018800	0.018700	0.018700	0.018700	0.018700	0.018800	0.019000	0.019100	0.018800	0.018500	0.018200	0.017900	0.017650	0.017350	0.017100	0.016900	0.016700	0.016500	0.016300	0.016100
12.000000	0.054800	0.047100	0.039400	0.035700	0.034700	0.034800	0.031800	0.029600	0.027800	0.026300	0.025000	0.023900	0.022900	0.022200	0.021600	0.021200	0.020900	0.020700	0.020600	0.020500	0.020500	0.020600	0.020700	0.020900	0.021100	0.021300	0.020700	0.020200	0.019800	0.019300	0.019000	0.018600	0.018300	0.018000	0.017800	0.017600	0.017400	0.017100	0.017000
12.500000	0.060300	0.051100	0.043500	0.039300	0.039700	0.037900	0.034900	0.032600	0.030800	0.029100	0.027600	0.026300	0.025200	0.024300	0.023600	0.023200	0.023000	0.022900	0.022800	0.022900	0.023000	0.023300	0.023500	0.023900	0.023600	0.022900	0.022300	0.021700	0.021200	0.020700	0.020300	0.019800	0.019500	0.019100	0.018800	0.018500	0.018300	0.018000	0.017800
13.000000	0.067500	0.057000	0.048300	0.043300	0.045300	0.041400	0.038400	0.036100	0.034100	0.032300	0.030600	0.029100	0.027700	0.026700	0.026100	0.025800	0.025600	0.025600	0.025800	0.026000	0.026400	0.026800	0.026400	0.026300	0.025500	0.024700	0.024000	0.023300	0.022700	0.022200	0.021700	0.021200	0.020700	0.020300	0.020000	0.019600	0.019300	0.019100	0.018800
13.500000	0.077200	0.064200	0.054000	0.048300	0.050900	0.045500	0.042300	0.039900	0.037700	0.035700	0.033800	0.032000	0.030500	0.029600	0.029200	0.029000	0.029100	0.029300	0.029700	0.030200	0.030900	0.030300	0.029300	0.028300	0.027400	0.026600	0.025800	0.025000	0.024400	0.023700	0.023200	0.022600	0.022100	0.021700	0.021300	0.020900	0.020600	0.020300	0.020000
14.000000	0.090500	0.073400	0.060600	0.054800	0.055900	0.050200	0.046700	0.044100	0.041800	0.039500	0.037300	0.035200	0.033800	0.033200	0.033000	0.033200	0.033500	0.034100	0.034900	0.035100	0.033800	0.032600	0.031500	0.030400	0.029400	0.028500	0.027700	0.026800	0.026100	0.025400	0.024800	0.024200	0.023700	0.023200	0.022800	0.022400	0.022000	0.021600	0.021300
14.500000	0.110600	0.085200	0.068600	0.063700	0.061900	0.055700	0.051800	0.048800	0.046200	0.043500	0.040900	0.038900	0.038000	0.037700	0.037900	0.038400	0.039300	0.040700	0.039300	0.037700	0.036400	0.035100	0.033800	0.032700	0.031600	0.030600	0.029600	0.028800	0.028000	0.027200	0.026500	0.025900	0.025400	0.024900	0.024400	0.023900	0.023600	0.023200	0.022800
15.000000	0.138167	0.101500	0.078200	0.075500	0.069000	0.062100	0.057600	0.054100	0.050900	0.047800	0.045000	0.043600	0.043200	0.043500	0.044300	0.045700	0.045800	0.044000	0.042200	0.040600	0.039100	0.037600	0.036300	0.035100	0.033800	0.032800	0.031800	0.030800	0.030000	0.029200	0.028500	0.027800	0.027200	0.026700	0.026200	0.025700	0.025300	0.024900	0.024600
15.500000	0.165733	0.177400	0.090500	0.089600	0.077500	0.069500	0.064300	0.059900	0.056000	0.052500	0.050100	0.049500	0.049900	0.051200	0.053900	0.051500	0.049400	0.047400	0.045400	0.043700	0.042000	0.040300	0.039000	0.037600	0.036200	0.035200	0.034100	0.033000	0.032200	0.031400	0.030600	0.029900	0.029300	0.028800	0.028200	0.027700	0.027300	0.026900	0.026500
16.000000	0.193300	0.181900	0.108400	0.105700	0.088000	0.078400	0.071800	0.066300	0.061500	0.058200	0.056900	0.057400	0.059600	0.061100	0.058300	0.055500	0.053300	0.051000	0.048800	0.047000	0.045100	0.043400	0.041800	0.040200	0.038900	0.037800	0.036600	0.035500	0.034700	0.033800	0.033000	0.032300	0.031700	0.031100	0.030600	0.030000	0.029600	0.029200	0.028800
16.500000	0.198100	0.195600	0.107150	0.123400	0.101200	0.088600	0.079900	0.073100	0.067900	0.065600	0.066100	0.070100	0.069500	0.066200	0.062900	0.060000	0.057400	0.054700	0.052600	0.050500	0.048300	0.046600	0.044900	0.043200	0.041900	0.040600	0.039300	0.038400	0.037500	0.036600	0.035700	0.035000	0.034400	0.033800	0.033200	0.032600	0.032100	0.031700	0.031300
17.000000	0.210600	0.207200	0.105900	0.143300	0.119000	0.101200	0.089200	0.080700	0.076000	0.076100	0.082300	0.080100	0.075300	0.071600	0.067800	0.064800	0.061800	0.059000	0.056600	0.054000	0.052000	0.050100	0.048100	0.046700	0.045200	0.043700	0.042600	0.041600	0.040600	0.039600	0.038800	0.038100	0.037500	0.036800	0.036200	0.035600	0.035100	0.034700	0.034300
17.500000	0.220400	0.217900	0.116200	0.136100	0.119050	0.116800	0.099100	0.089600	0.087600	0.094400	0.093400	0.087100	0.081600	0.077400	0.073200	0.069900	0.066300	0.063600	0.060800	0.058200	0.056100	0.053700	0.052000	0.050500	0.048800	0.047400	0.046300	0.045300	0.044200	0.043100	0.042400	0.041700	0.041000	0.040300	0.039600	0.039000	0.038500	0.038100	0.037700
18.000000	0.227800	0.225300	0.126500	0.128900	0.119100	0.149400	0.110300	0.101600	0.106000	0.112100	0.102100	0.094800	0.088600	0.083800	0.079300	0.075400	0.071700	0.068600	0.065300	0.062900	0.060400	0.058200	0.056400	0.054600	0.052900	0.051700	0.050500	0.049300	0.048100	0.047200	0.046500	0.045700	0.045000	0.044300	0.043600	0.043000	0.042500	0.042100	0.041700
18.500000	0.234200	0.231700	0.137250	0.140000	0.129550	0.145500	0.123800	0.118400	0.130300	0.123200	0.111700	0.103200	0.096300	0.090800	0.086000	0.081200	0.077600	0.073800	0.070800	0.068200	0.065300	0.063300	0.061400	0.059200	0.057800	0.056500	0.055300	0.053900	0.052800	0.052000	0.051200	0.050500	0.049900	0.049200	0.048500	0.047900	0.047500	0.047100	0.046700
19.000000	0.241600	0.237700	0.148000	0.151100	0.140000	0.141600	0.142600	0.139800	0.153700	0.138100	0.122300	0.112600	0.104900	0.098800	0.093500	0.088200	0.084300	0.080000	0.077100	0.073700	0.071200	0.069100	0.066800	0.064900	0.063500	0.062100	0.060800	0.059400	0.058500	0.057700	0.057000	0.056400	0.055900	0.055400	0.079900	0.079400	0.079500	0.079100	0.078800
19.500000	0.254200	0.250100	0.159100	0.162450	0.150950	0.153000	0.145100	0.163700	0.179100	0.143350	0.135900	0.123300	0.114600	0.108100	0.101900	0.096100	0.091900	0.087300	0.084100	0.080400	0.078000	0.075700	0.073100	0.071500	0.070200	0.068900	0.067700	0.080550	0.079750	0.078900	0.079000	0.074300	0.079000	0.078500	0.090150	0.089550	0.090050	0.089550	0.089250
20.000000	0.262200	0.259000	0.170200	0.173800	0.161900	0.164400	0.147600	0.152100	0.158700	0.148600	0.152600	0.136700	0.126700	0.118500	0.111500	0.105200	0.100600	0.095700	0.092200	0.088300	0.085800	0.083600	0.081200	0.081600	0.085000	0.086700	0.100600	0.101700	0.101000	0.090400	0.101000	0.085100	0.102100	0.101600	0.100400	0.099700	0.100600	0.100000	0.099700
20.500000	0.268200	0.267500	0.181550	0.185350	0.173250	0.176100	0.158650	0.164350	0.171700	0.160850	0.158350	0.152800	0.139400	0.130200	0.122400	0.116200	0.110600	0.105300	0.101800	0.097900	0.095700	0.095100	0.096800	0.098500	0.100200	0.101800	0.111650	0.112950	0.112250	0.103800	0.112850	0.096900	0.113850	0.113300	0.111900	0.111050	0.112450	0.111700	0.111400
21.000000	0.276400	0.275200	0.192900	0.196900	0.184600	0.187800	0.169700	0.176600	0.184700	0.173100	0.164100	0.174200	0.155900	0.145100	0.136300	0.128800	0.122400	0.117900	0.113600	0.111300	0.110900	0.111900	0.113100	0.114400	0.116200	0.118000	0.122700	0.124200	0.123500	0.119800	0.124700	0.111700	0.125600	0.125000	0.123400	0.122400	0.124300	0.123400	0.123100
21.500000	0.284100	0.283200	0.204550	0.208650	0.196250	0.199750	0.181250	0.189100	0.197650	0.185600	0.176150	0.179400	0.178700	0.162700	0.152400	0.144300	0.137500	0.132000	0.129100	0.127800	0.128100	0.129100	0.130300	0.131600	0.133500	0.135400	0.134750	0.136400	0.135750	0.138200	0.137450	0.128600	0.138250	0.137700	0.135850	0.134750	0.137100	0.136100	0.135800
22.000000	0.290800	0.291100	0.216200	0.220400	0.207900	0.211700	0.192800	0.201600	0.210600	0.198100	0.188200	0.184600	0.180400	0.185000	0.171600	0.162200	0.155200	0.149600	0.147100	0.146300	0.146700	0.147600	0.148800	0.150300	0.152500	0.154300	0.146800	0.148600	0.148000	0.161500	0.150200	0.148300	0.150900	0.150400	0.148300	0.147100	0.149900	0.148800	0.148500
22.500000	0.299600	0.298400	0.228050	0.232250	0.219850	0.223850	0.204700	0.214300	0.223500	0.210850	0.200650	0.196900	0.192500	0.190650	0.196200	0.183400	0.175200	0.170500	0.167300	0.166600	0.166900	0.167700	0.169200	0.171200	0.172800	0.174600	0.159600	0.161600	0.161000	0.179400	0.163750	0.173800	0.164250	0.163750	0.161500	0.160200	0.163400	0.162200	0.161950
23.000000	0.313800	0.305100	0.239900	0.244100	0.231800	0.236000	0.216600	0.227000	0.236400	0.223600	0.213100	0.209200	0.204600	0.196300	0.201700	0.195700	0.198400	0.193800	0.190800	0.189000	0.189400	0.191000	0.192200	0.193600	0.195100	0.196800	0.172400	0.174600	0.174000	0.197300	0.177300	0.209000	0.177600	0.177100	0.174700	0.173300	0.176900	0.175600	0.175400
23.500000	0.321800	0.318500	0.252000	0.256200	0.244050	0.248350	0.228900	0.239850	0.249300	0.236500	0.225850	0.221850	0.217150	0.208550	0.215150	0.209000	0.208250	0.220700	0.217200	0.216000	0.215800	0.216100	0.216800	0.217900	0.219200	0.221100	0.185850	0.188150	0.187600	0.212650	0.191350	0.219900	0.191500	0.191050	0.188450	0.187050	0.190950	0.189600	0.189400
24.000000	0.328100	0.328000	0.264100	0.268300	0.256300	0.260700	0.241200	0.252700	0.262200	0.249400	0.238600	0.234500	0.229700	0.220800	0.228600	0.222300	0.218100	0.226600	0.225500	0.225200	0.225200	0.225500	0.226000	0.226600	0.224000	0.225100	0.199300	0.201700	0.201200	0.228000	0.205400	0.230800	0.205400	0.205000	0.202200	0.200800	0.205000	0.203600	0.203400
24.500000	0.336200	0.337300	0.276450	0.280600	0.268750	0.273250	0.253850	0.265650	0.275150	0.262500	0.251650	0.247450	0.242600	0.233500	0.242300	0.235900	0.231650	0.240750	0.240050	0.239900	0.240050	0.240450	0.241100	0.241750	0.238850	0.240000	0.213200	0.215700	0.215200	0.243200	0.219750	0.245800	0.219700	0.219300	0.216400	0.214950	0.219450	0.217950	0.217750
25.000000	0.345000	0.346400	0.288800	0.292900	0.281200	0.285800	0.266500	0.278600	0.288100	0.275600	0.264700	0.260400	0.255500	0.246200	0.256000	0.249500	0.245200	0.254900	0.254600	0.254600	0.254900	0.255400	0.256200	0.256900	0.253700	0.254900	0.227100	0.229700	0.229200	0.258400	0.234100	0.260800	0.234000	0.233600	0.230600	0.229100	0.233900	0.232300	0.232100
25.500000	0.320900	0.322500	0.301350	0.305350	0.293900	0.298500	0.279400	0.291750	0.301100	0.288800	0.277950	0.273650	0.268700	0.259250	0.269850	0.263350	0.259050	0.269150	0.269200	0.269300	0.269650	0.270250	0.271150	0.271950	0.268500	0.269750	0.241350	0.244050	0.243550	0.273400	0.248750	0.275600	0.248500	0.248150	0.245100	0.243550	0.248500	0.246900	0.246750
26.000000	0.296800	0.298600	0.313900	0.317800	0.306600	0.311200	0.292300	0.304900	0.314100	0.302000	0.291200	0.286900	0.281900	0.272300	0.283700	0.277200	0.272900	0.283400	0.283800	0.284000	0.284400	0.285100	0.286100	0.287000	0.283300	0.284600	0.255600	0.258400	0.257900	0.288400	0.263400	0.290400	0.263000	0.262700	0.259600	0.258000	0.263100	0.261500	0.261400
26.500000	0.309450	0.311500	0.326650	0.330500	0.319550	0.324150	0.305450	0.318200	0.327200	0.315400	0.304650	0.300350	0.295350	0.285650	0.297700	0.291250	0.286950	0.297750	0.298350	0.298650	0.299150	0.299900	0.300900	0.301850	0.298050	0.299400	0.270100	0.272950	0.272500	0.303200	0.278150	0.305050	0.277700	0.277400	0.274300	0.272700	0.277900	0.276300	0.276200
27.000000	0.322100	0.324400	0.339400	0.343200	0.332500	0.337100	0.318600	0.331500	0.340300	0.328800	0.318100	0.313800	0.308800	0.299000	0.311700	0.305300	0.301000	0.312100	0.312900	0.313300	0.313900	0.314700	0.315700	0.316700	0.312800	0.314200	0.284600	0.287500	0.287100	0.318000	0.292900	0.319700	0.292400	0.292100	0.289000	0.287400	0.292700	0.291100	0.291000
27.500000	0.335000	0.337600	0.352400	0.356100	0.345650	0.350200	0.332000	0.344900	0.353500	0.342300	0.331750	0.327450	0.322450	0.312700	0.325850	0.319500	0.315200	0.326500	0.327450	0.327950	0.328550	0.329350	0.330450	0.331400	0.327500	0.328900	0.299350	0.302250	0.301900	0.332700	0.307800	0.334250	0.307250	0.306950	0.303850	0.302250	0.307650	0.306050	0.305900
28.000000	0.347900	0.350800	0.365400	0.369000	0.358800	0.363300	0.345400	0.358300	0.366700	0.355800	0.345400	0.341100	0.336100	0.326400	0.340000	0.333700	0.329400	0.340900	0.342000	0.342600	0.343200	0.344000	0.345200	0.346100	0.342200	0.343600	0.314100	0.317000	0.316700	0.347400	0.322700	0.348800	0.322100	0.321800	0.318700	0.317100	0.322600	0.321000	0.320800
28.500000	0.361100	0.364250	0.378550	0.382100	0.372150	0.376600	0.359050	0.371900	0.380100	0.369450	0.359200	0.355000	0.350000	0.340300	0.354250	0.348050	0.343800	0.355350	0.356550	0.357200	0.357850	0.358650	0.359850	0.360750	0.356850	0.358250	0.329000	0.331900	0.331600	0.362000	0.337700	0.363300	0.337050	0.336750	0.333650	0.332050	0.337600	0.336000	0.335800
29.000000	0.374300	0.377700	0.391700	0.395200	0.385500	0.389900	0.372700	0.385500	0.393500	0.383100	0.373000	0.368900	0.363900	0.354200	0.368500	0.362400	0.358200	0.369800	0.371100	0.371800	0.372500	0.373300	0.374500	0.375400	0.371500	0.372900	0.343900	0.346800	0.346500	0.376600	0.352700	0.377800	0.352000	0.351700	0.348600	0.347000	0.352600	0.351000	0.350800
29.500000	0.387750	0.391350	0.405100	0.408500	0.399100	0.403450	0.386500	0.399250	0.407000	0.396950	0.387000	0.382950	0.378050	0.368350	0.382850	0.376850	0.372750	0.384300	0.385700	0.386400	0.387100	0.387950	0.389150	0.390050	0.386150	0.387550	0.358950	0.361850	0.361550	0.391200	0.367750	0.392300	0.367000	0.366750	0.363700	0.362100	0.367650	0.366050	0.365900
30.000000	0.401200	0.405000	0.418500	0.421800	0.412700	0.417000	0.400300	0.413000	0.420500	0.410800	0.401000	0.397000	0.392200	0.382500	0.397200	0.391300	0.387300	0.398800	0.400300	0.401000	0.401700	0.402600	0.403800	0.404700	0.400800	0.402200	0.374000	0.376900	0.376600	0.405800	0.382800	0.406800	0.382000	0.381800	0.378800	0.377200	0.382700	0.381100	0.381000
31.000000	0.428600	0.432700	0.445700	0.448900	0.440200	0.444300	0.428400	0.440800	0.447800	0.438700	0.429400	0.425400	0.420700	0.411200	0.426200	0.420500	0.416600	0.427900	0.429600	0.430300	0.431000	0.431900	0.433000	0.433900	0.430200	0.431500	0.404200	0.407100	0.406800	0.435000	0.413000	0.435800	0.412200	0.412000	0.409000	0.407500	0.412900	0.411400	0.411300
32.000000	0.456500	0.460800	0.473300	0.476300	0.468100	0.472100	0.456800	0.468900	0.475500	0.467000	0.458000	0.454200	0.449600	0.440300	0.455300	0.449900	0.446200	0.457300	0.459000	0.459700	0.460400	0.461300	0.462400	0.463200	0.459700	0.460900	0.434700	0.437500	0.437200	0.464200	0.443300	0.464900	0.442400	0.442300	0.439500	0.438000	0.443200	0.441800	0.441700
33.000000	0.484800	0.489200	0.501300	0.504100	0.496300	0.500200	0.485500	0.497300	0.503500	0.495500	0.486900	0.483300	0.478800	0.469800	0.484700	0.479600	0.476000	0.486800	0.488500	0.489300	0.489900	0.490800	0.491800	0.492600	0.489200	0.490400	0.465300	0.468000	0.467800	0.493500	0.473700	0.494100	0.472900	0.472700	0.470000	0.468600	0.473700	0.472300	0.472200
34.000000	0.513400	0.518000	0.529600	0.532200	0.524900	0.528600	0.514600	0.526000	0.531800	0.524300	0.516100	0.512600	0.508300	0.499500	0.514300	0.509400	0.506000	0.516400	0.518200	0.518900	0.519600	0.520400	0.521400	0.522100	0.518900	0.520000	0.496100	0.498700	0.498500	0.522900	0.504300	0.523500	0.503400	0.503300	0.500700	0.499300	0.504200	0.502900	0.502900
35.000000	0.542400	0.547100	0.558200	0.560700	0.553700	0.557300	0.544000	0.554900	0.560400	0.553400	0.545600	0.542200	0.538100	0.529500	0.544100	0.539400	0.536200	0.546200	0.548000	0.548700	0.549300	0.550100	0.551000	0.551800	0.548700	0.549800	0.527000	0.529500	0.529400	0.552500	0.534900	0.553000	0.534000	0.533900	0.531500	0.530200	0.534900	0.533600	0.533600
36.000000	0.571800	0.576500	0.587100	0.589500	0.582900	0.586300	0.573600	0.584100	0.589300	0.582700	0.575300	0.572000	0.568100	0.559700	0.574100	0.569600	0.566600	0.576200	0.577900	0.578600	0.579200	0.580000	0.580800	0.581500	0.578700	0.579600	0.558100	0.560400	0.560300	0.582200	0.565700	0.582600	0.564800	0.564700	0.562300	0.561100	0.565600	0.564400	0.564400
37.000000	0.601400	0.606100	0.616200	0.618500	0.612300	0.615500	0.603400	0.613600	0.618500	0.612200	0.605200	0.602100	0.598200	0.590200	0.604200	0.600000	0.597100	0.606300	0.608000	0.608700	0.609300	0.610000	0.610800	0.611400	0.608700	0.609700	0.589200	0.591500	0.591300	0.612100	0.596500	0.612400	0.595700	0.595600	0.593300	0.592200	0.596500	0.595400	0.595300
38.000000	0.631200	0.636000	0.645700	0.647800	0.641900	0.645000	0.633500	0.643200	0.647800	0.642000	0.635300	0.632300	0.628600	0.620900	0.634500	0.630500	0.627700	0.636600	0.638200	0.638900	0.639400	0.640100	0.640900	0.641500	0.638900	0.639800	0.620400	0.622600	0.622500	0.642100	0.627400	0.642400	0.626600	0.626500	0.624400	0.623300	0.627400	0.626300	0.626300
39.000000	0.661300	0.666100	0.675300	0.677300	0.671700	0.674700	0.663700	0.673100	0.677400	0.671900	0.665500	0.662700	0.659100	0.651700	0.665000	0.661100	0.658500	0.667000	0.668500	0.669200	0.669700	0.670300	0.671100	0.671600	0.669200	0.670100	0.651700	0.653800	0.653700	0.672200	0.658400	0.672500	0.657600	0.657600	0.655500	0.654500	0.658400	0.657400	0.657400
40.000000	0.691500	0.696300	0.705100	0.707000	0.701700	0.704600	0.694100	0.703100	0.707100	0.702000	0.695900	0.693200	0.689800	0.682600	0.695500	0.691900	0.689400	0.697500	0.699000	0.699600	0.700100	0.700700	0.701400	0.701900	0.699700	0.700400	0.683000	0.685000	0.684900	0.702400	0.689500	0.702700	0.688700	0.688600	0.686700	0.685700	0.689500	0.688500	0.688500
41.000000	0.721900	0.726600	0.735100	0.736900	0.731900	0.734600	0.724600	0.733200	0.737000	0.732200	0.726400	0.723800	0.720500	0.713600	0.726100	0.722700	0.720300	0.728000	0.729500	0.730100	0.730500	0.731100	0.731800	0.732300	0.730100	0.730900	0.714400	0.716300	0.716200	0.732700	0.720500	0.733000	0.719800	0.719800	0.717900	0.717000	0.720500	0.719600	0.719600
42.000000	0.752400	0.757100	0.765100	0.766900	0.762100	0.764700	0.755200	0.763400	0.767000	0.762500	0.757000	0.754500	0.751400	0.744700	0.756800	0.753500	0.751300	0.758700	0.760000	0.760600	0.761100	0.761600	0.762200	0.762700	0.760700	0.761400	0.745800	0.747600	0.747500	0.763100	0.751600	0.763300	0.750900	0.750900	0.749100	0.748300	0.751600	0.750800	0.750800
43.000000	0.783000	0.787600	0.795300	0.796900	0.792400	0.794900	0.785800	0.793700	0.797100	0.792800	0.787600	0.785200	0.782200	0.775800	0.787500	0.784400	0.782300	0.789300	0.790600	0.791200	0.791600	0.792100	0.792700	0.793100	0.791300	0.791900	0.777100	0.778800	0.778800	0.793600	0.782700	0.793700	0.782000	0.782000	0.780400	0.779500	0.782700	0.781900	0.781900
44.000000	0.813600	0.818100	0.825500	0.827000	0.822800	0.825100	0.816500	0.824100	0.827300	0.823200	0.818200	0.815900	0.813100	0.806900	0.818200	0.815300	0.813200	0.820000	0.821200	0.821800	0.822200	0.822600	0.823200	0.823600	0.821800	0.822400	0.808500	0.810100	0.810000	0.824000	0.813800	0.824200	0.813100	0.813100	0.811500	0.810700	0.813800	0.813000	0.813000
45.000000	0.844200	0.848700	0.855700	0.857200	0.853100	0.855400	0.847100	0.854400	0.857400	0.853600	0.848900	0.846700	0.844000	0.838000	0.848900	0.846100	0.844200	0.850600	0.851800	0.852300	0.852700	0.853100	0.853700	0.854100	0.852400	0.853000	0.839700	0.841300	0.841200	0.854400	0.844800	0.854600	0.844200	0.844100	0.842700	0.841900	0.844800	0.844100	0.844100
46.000000	0.874800	0.879200	0.885900	0.887300	0.883500	0.885600	0.877700	0.884700	0.887600	0.883900	0.879500	0.877400	0.874700	0.869000	0.879600	0.876900	0.875100	0.881200	0.882300	0.882800	0.883200	0.883600	0.884100	0.884500	0.882900	0.883400	0.870900	0.872300	0.872300	0.884800	0.875700	0.884900	0.875100	0.875100	0.873700	0.873000	0.875700	0.875000	0.875000
47.000000	0.905400	0.909700	0.916100	0.917400	0.913800	0.915800	0.908300	0.915000	0.917700	0.914200	0.910000	0.908000	0.905500	0.900000	0.910100	0.907600	0.905800	0.911700	0.912800	0.913200	0.913600	0.914000	0.914500	0.914800	0.913300	0.913800	0.901900	0.903300	0.903300	0.915100	0.906500	0.915200	0.906000	0.905900	0.904600	0.903900	0.906600	0.905900	0.905900
48.000000	0.935800	0.940000	0.946200	0.947400	0.943900	0.945900	0.938700	0.945100	0.947700	0.944400	0.940400	0.938400	0.936000	0.930800	0.940600	0.938200	0.936500	0.942000	0.943100	0.943500	0.943900	0.944300	0.944700	0.945000	0.943600	0.944100	0.932800	0.934100	0.934100	0.945300	0.937200	0.945400	0.936700	0.936600	0.935400	0.934700	0.937200	0.936600	0.936600
49.000000	0.966100	0.970200	0.976100	0.977300	0.974000	0.975900	0.969000	0.975100	0.977600	0.974500	0.970600	0.968800	0.966500	0.961400	0.970800	0.968600	0.967000	0.972300	0.973300	0.973700	0.974000	0.974400	0.974800	0.975100	0.973800	0.974200	0.963500	0.964800	0.964800	0.975400	0.967700	0.975500	0.967200	0.967200	0.966000	0.965400	0.967700	0.967200	0.967100
50.000000	0.996300	1.000300	1.005900	1.007000	1.003900	1.005700	0.999100	1.005000	1.007300	1.004400	1.000700	0.998900	0.996700	0.991900	1.000900	0.998800	0.997300	1.002300	1.003300	1.003700	1.004000	1.004300	1.004700	1.005000	1.003800	1.004200	0.994000	0.995200	0.995200	1.005300	0.998000	1.005400	0.997500	0.997500	0.996400	0.995800	0.998100	0.997500	0.997500
51.000000	1.026200	1.030100	1.035500	1.036600	1.033600	1.035300	1.029000	1.034700	1.036900	1.034100	1.030600	1.028900	1.026800	1.022100	1.030800	1.028800	1.027300	1.032200	1.033100	1.033500	1.033700	1.034100	1.034400	1.034700	1.033500	1.033900	1.024300	1.025400	1.025400	1.035000	1.028100	1.035000	1.027600	1.027600	1.026500	1.026000	1.028100	1.027600	1.027600
52.000000	1.055900	1.059700	1.064900	1.065900	1.063100	1.064700	1.058700	1.064100	1.066200	1.063600	1.060200	1.058600	1.056600	1.052100	1.060500	1.058500	1.057100	1.061800	1.062700	1.063000	1.063300	1.063600	1.063900	1.064200	1.063100	1.063500	1.054300	1.055400	1.055400	1.064400	1.057900	1.064500	1.057500	1.057500	1.056400	1.055900	1.058000	1.057400	1.057400
53.000000	1.085400	1.089100	1.094000	1.095000	1.092300	1.093800	1.088100	1.093300	1.095200	1.092800	1.089600	1.088000	1.086100	1.081800	1.089800	1.088000	1.086700	1.091100	1.091900	1.092300	1.092500	1.092800	1.093100	1.093400	1.092300	1.092700	1.084000	1.085000	1.085000	1.093600	1.087500	1.093700	1.087000	1.087000	1.086000	1.085500	1.087500	1.087000	1.087000
54.000000	1.114500	1.118100	1.122800	1.123800	1.121200	1.122700	1.117200	1.122100	1.124000	1.121600	1.118600	1.117100	1.115300	1.111100	1.118900	1.117100	1.115900	1.120100	1.120900	1.121200	1.121500	1.121700	1.122000	1.122300	1.121300	1.121600	1.113300	1.114300	1.114300	1.122500	1.116700	1.122500	1.116200	1.116200	1.115300	1.114800	1.116700	1.116200	1.116200
55.000000	1.143300	1.146800	1.151300	1.152200	1.149700	1.151200	1.145900	1.150700	1.152400	1.150200	1.147300	1.145900	1.144100	1.140100	1.147600	1.145900	1.144700	1.148700	1.149500	1.149800	1.150100	1.150300	1.150600	1.150800	1.149900	1.150200	1.142300	1.143300	1.143300	1.151000	1.145500	1.151100	1.145100	1.145100	1.144200	1.143700	1.145500	1.145100	1.145100
56.000000	1.171700	1.175100	1.179400	1.180300	1.177900	1.179300	1.174300	1.178800	1.180500	1.178400	1.175600	1.174300	1.172600	1.168700	1.175900	1.174300	1.173200	1.177000	1.177800	1.178100	1.178300	1.178500	1.178800	1.179000	1.178100	1.178400	1.170900	1.171800	1.171800	1.179200	1.174000	1.179300	1.173600	1.173600	1.172700	1.172300	1.174000	1.173600	1.173600
57.000000	1.199700	1.203000	1.207200	1.208000	1.205700	1.207000	1.202300	1.206600	1.208200	1.206200	1.203500	1.202200	1.200600	1.196900	1.203900	1.202300	1.201200	1.204900	1.205600	1.205900	1.206100	1.206300	1.206600	1.206800	1.205900	1.206200	1.199100	1.200000	1.200000	1.207000	1.202000	1.207000	1.201600	1.201600	1.200800	1.200400	1.202000	1.201600	1.201600
58.000000	1.227300	1.230500	1.234500	1.235300	1.233100	1.234400	1.229800	1.234000	1.235500	1.233600	1.231000	1.229800	1.228200	1.224700	1.231300	1.229900	1.228800	1.232300	1.233000	1.233300	1.233500	1.233700	1.234000	1.234200	1.233300	1.233600	1.226800	1.227700	1.227700	1.234300	1.229600	1.234400	1.229200	1.229200	1.228500	1.228100	1.229600	1.229200	1.229200
59.000000	1.254400	1.257500	1.261300	1.262100	1.260000	1.261200	1.256800	1.260800	1.262300	1.260400	1.258000	1.256800	1.255300	1.252000	1.258400	1.257000	1.256000	1.259300	1.260000	1.260200	1.260400	1.260600	1.260900	1.261000	1.260300	1.260500	1.254100	1.254900	1.254800	1.261200	1.256700	1.261200	1.256400	1.256400	1.255600	1.255200	1.256700	1.256400	1.256400
60.000000	1.281000	1.284000	1.287700	1.288400	1.286400	1.287600	1.283400	1.287200	1.288600	1.286800	1.284500	1.283400	1.282000	1.278700	1.284900	1.283500	1.282600	1.285800	1.286400	1.286600	1.286800	1.287000	1.287200	1.287400	1.286700	1.286900	1.280800	1.281500	1.281500	1.287600	1.283300	1.287600	1.283000	1.283000	1.282300	1.281900	1.283300	1.283000	1.283000
61.000000	1.307100	1.310000	1.313500	1.314200	1.312300	1.313400	1.309400	1.313000	1.314400	1.312700	1.310500	1.309400	1.308000	1.304900	1.310800	1.309500	1.308600	1.311700	1.312300	1.312500	1.312700	1.312900	1.313100	1.313300	1.312600	1.312800	1.306900	1.307700	1.307700	1.313400	1.309400	1.313400	1.309000	1.309000	1.308400	1.308000	1.309400	1.309000	1.309000
62.000000	1.332500	1.335400	1.338700	1.339400	1.337600	1.338600	1.334800	1.338300	1.339600	1.338000	1.335900	1.334900	1.333500	1.330500	1.336200	1.335000	1.334100	1.337100	1.337600	1.337800	1.338000	1.338200	1.338400	1.338600	1.337900	1.338100	1.332500	1.333200	1.333200	1.338700	1.334800	1.338700	1.334500	1.334500	1.333900	1.333600	1.334800	1.334500	1.334500
63.000000	1.357400	1.360200	1.363400	1.364000	1.362300	1.363300	1.359700	1.363000	1.364200	1.362700	1.360700	1.359700	1.358400	1.355600	1.361000	1.359900	1.359000	1.361800	1.362400	1.362600	1.362700	1.362900	1.363100	1.363200	1.362600	1.362800	1.357500	1.358200	1.358200	1.363400	1.359700	1.363400	1.359400	1.359400	1.358800	1.358500	1.359700	1.359400	1.359400
64.000000	1.381700	1.384400	1.387500	1.388100	1.386400	1.387400	1.383900	1.387100	1.388200	1.386800	1.384900	1.383900	1.382700	1.379900	1.385200	1.384100	1.383300	1.386000	1.386500	1.386700	1.386800	1.387000	1.387200	1.387300	1.386700	1.386900	1.381800	1.382500	1.382500	1.387400	1.384000	1.387500	1.383700	1.383700	1.383100	1.382800	1.384000	1.383700	1.383700
65.000000	1.405300	1.407900	1.410900	1.411400	1.409900	1.410800	1.407400	1.410500	1.411600	1.410300	1.408400	1.407500	1.406300	1.403700	1.408700	1.407700	1.406900	1.409500	1.410000	1.410100	1.410300	1.410400	1.410600	1.410800	1.410200	1.410400	1.405500	1.406100	1.406100	1.410900	1.407500	1.410900	1.407300	1.407300	1.406700	1.406400	1.407600	1.407300	1.407300
66.000000	1.428300	1.430800	1.433600	1.434100	1.432600	1.433500	1.430300	1.433300	1.434300	1.433000	1.431200	1.430400	1.429300	1.426700	1.431600	1.430500	1.429800	1.432300	1.432700	1.432900	1.433100	1.433200	1.433400	1.433500	1.433000	1.433100	1.428500	1.429100	1.429100	1.433600	1.430400	1.433600	1.430200	1.430200	1.429700	1.429400	1.430500	1.430200	1.430200
67.000000	1.450500	1.452900	1.455600	1.456100	1.454700	1.455600	1.452500	1.455300	1.456300	1.455100	1.453400	1.452500	1.451500	1.449000	1.453700	1.452700	1.452000	1.454400	1.454800	1.455000	1.455100	1.455300	1.455400	1.455500	1.455000	1.455200	1.450800	1.451300	1.451300	1.455600	1.452600	1.455700	1.452400	1.452400	1.451900	1.451600	1.452600	1.452400	1.452400
68.000000	1.472000	1.474300	1.476900	1.477400	1.476100	1.476900	1.473900	1.476600	1.477600	1.476400	1.474800	1.474000	1.473000	1.470600	1.475100	1.474200	1.473500	1.475700	1.476200	1.476300	1.476500	1.476600	1.476700	1.476900	1.476400	1.476500	1.472300	1.472800	1.472900	1.477000	1.474100	1.477000	1.473900	1.473900	1.473400	1.473100	1.474100	1.473900	1.473900
69.000000	1.492700	1.495000	1.497500	1.497900	1.496600	1.497400	1.494600	1.497200	1.498100	1.497000	1.495400	1.494700	1.493700	1.491400	1.495700	1.494800	1.494200	1.496300	1.496800	1.496900	1.497000	1.497200	1.497300	1.497400	1.496900	1.497100	1.493100	1.493600	1.493600	1.497500	1.494800	1.497500	1.494500	1.494600	1.494100	1.493900	1.494800	1.494600	1.494600
70.000000	1.512700	1.514800	1.517200	1.517700	1.516400	1.517200	1.514500	1.517000	1.517800	1.516800	1.515300	1.514500	1.513600	1.511400	1.515600	1.514700	1.514100	1.516200	1.516600	1.516700	1.516800	1.516900	1.517100	1.517200	1.516700	1.516900	1.513100	1.513500	1.513500	1.517300	1.514700	1.517300	1.514500	1.514500	1.514000	1.513800	1.514700	1.514500	1.514500
71.000000	1.531800	1.533900	1.536200	1.536600	1.535400	1.536100	1.533500	1.536000	1.536800	1.535700	1.534300	1.533600	1.532700	1.530600	1.534600	1.533800	1.533200	1.535200	1.535600	1.535700	1.535800	1.535900	1.536100	1.536200	1.535700	1.535900	1.532200	1.532700	1.532700	1.536200	1.533800	1.536300	1.533500	1.533600	1.533100	1.532900	1.533800	1.533600	1.533600
72.000000	1.550100	1.552100	1.554300	1.554700	1.553600	1.554300	1.551800	1.554100	1.554900	1.553900	1.552500	1.551900	1.551000	1.549000	1.552800	1.552000	1.551500	1.553400	1.553700	1.553900	1.554000	1.554100	1.554200	1.554300	1.553900	1.554000	1.550500	1.551000	1.551000	1.554400	1.552000	1.554400	1.551800	1.551800	1.551400	1.551200	1.552000	1.551800	1.551800
73.000000	1.567500	1.569500	1.571600	1.572000	1.570900	1.571600	1.569200	1.571400	1.572100	1.571200	1.569900	1.569300	1.568400	1.566500	1.570200	1.569400	1.568900	1.570700	1.571000	1.571200	1.571300	1.571400	1.571500	1.571600	1.571200	1.571300	1.568000	1.568400	1.568400	1.571700	1.569400	1.571700	1.569200	1.569200	1.568800	1.568600	1.569400	1.569200	1.569200
74.000000	1.584100	1.586000	1.588000	1.588400	1.587300	1.588000	1.585700	1.587800	1.588500	1.587600	1.586400	1.585800	1.585000	1.583100	1.586600	1.585900	1.585400	1.587200	1.587500	1.587600	1.587700	1.587800	1.587900	1.588000	1.587600	1.587800	1.584600	1.585000	1.585000	1.588100	1.585900	1.588100	1.585700	1.585700	1.585400	1.585200	1.585900	1.585800	1.585800
75.000000	1.599700	1.601600	1.603500	1.603900	1.602900	1.603500	1.601300	1.603300	1.604000	1.603200	1.602000	1.601400	1.600600	1.598800	1.602200	1.601600	1.601100	1.602700	1.603000	1.603200	1.603200	1.603300	1.603500	1.603500	1.603200	1.603300	1.600300	1.600600	1.600600	1.603600	1.601500	1.603600	1.601400	1.601400	1.601000	1.600800	1.601600	1.601400	1.601400
76.000000	1.614500	1.616300	1.618100	1.618500	1.617500	1.618100	1.616000	1.618000	1.618600	1.617800	1.616700	1.616100	1.615400	1.613700	1.616900	1.616300	1.615800	1.617400	1.617700	1.617800	1.617900	1.618000	1.618100	1.618100	1.617800	1.617900	1.615000	1.615400	1.615400	1.618200	1.616300	1.618200	1.616100	1.616100	1.615800	1.615600	1.616300	1.616100	1.616100
77.000000	1.628300	1.630000	1.631800	1.632200	1.631200	1.631800	1.629800	1.631700	1.632300	1.631500	1.630400	1.629900	1.629200	1.627500	1.630600	1.630000	1.629600	1.631100	1.631400	1.631500	1.631600	1.631700	1.631800	1.631800	1.631500	1.631600	1.628800	1.629200	1.629200	1.631900	1.630000	1.631900	1.629900	1.629900	1.629600	1.629400	1.630000	1.629900	1.629900
78.000000	1.641200	1.642900	1.644600	1.644900	1.644000	1.644500	1.642600	1.644400	1.645000	1.644300	1.643200	1.642700	1.642000	1.640400	1.643400	1.642800	1.642400	1.643900	1.644100	1.644300	1.644300	1.644400	1.644500	1.644600	1.644300	1.644400	1.641700	1.642100	1.642100	1.644600	1.642900	1.644600	1.642700	1.642700	1.642400	1.642200	1.642900	1.642700	1.642700
79.000000	1.653100	1.654700	1.656300	1.656700	1.655800	1.656300	1.654500	1.656200	1.656800	1.656100	1.655100	1.654500	1.653900	1.652400	1.655300	1.654700	1.654300	1.655700	1.656000	1.656000	1.656100	1.656200	1.656300	1.656400	1.656100	1.656200	1.653600	1.654000	1.654000	1.656400	1.654700	1.656400	1.654600	1.654600	1.654300	1.654100	1.654700	1.654600	1.654600
80.000000	1.664000	1.665600	1.667200	1.667400	1.666600	1.667100	1.665400	1.667000	1.667600	1.666900	1.665900	1.665400	1.664800	1.663400	1.666100	1.665600	1.665200	1.666500	1.666800	1.666900	1.666900	1.667000	1.667100	1.667200	1.666900	1.667000	1.664600	1.664900	1.664900	1.667200	1.665600	1.667200	1.665500	1.665500	1.665200	1.665000	1.665600	1.665500	1.665500
81.000000	1.674000	1.675500	1.677000	1.677300	1.676500	1.677000	1.675300	1.676800	1.677400	1.676700	1.675800	1.675300	1.674700	1.673300	1.676000	1.675500	1.675100	1.676400	1.676600	1.676700	1.676800	1.676900	1.676900	1.677000	1.676700	1.676800	1.674500	1.674800	1.674800	1.677000	1.675500	1.677100	1.675400	1.675400	1.675100	1.675000	1.675500	1.675400	1.675400
82.000000	1.682900	1.684300	1.685800	1.686100	1.685300	1.685800	1.684100	1.685700	1.686200	1.685500	1.684700	1.684200	1.683700	1.682300	1.684900	1.684400	1.684000	1.685200	1.685500	1.685500	1.685600	1.685700	1.685800	1.685800	1.685600	1.685700	1.683400	1.683700	1.683700	1.685900	1.684400	1.685900	1.684300	1.684300	1.684000	1.683900	1.684400	1.684300	1.684300
83.000000	1.690800	1.692200	1.693600	1.693900	1.693200	1.693600	1.692000	1.693500	1.694000	1.693400	1.692500	1.692100	1.691600	1.690300	1.692700	1.692200	1.691900	1.693100	1.693300	1.693400	1.693400	1.693500	1.693600	1.693600	1.693400	1.693500	1.691400	1.691600	1.691600	1.693700	1.692300	1.693700	1.692100	1.692100	1.691900	1.691800	1.692300	1.692200	1.692200
84.000000	1.697700	1.699100	1.700400	1.700600	1.700000	1.700400	1.698900	1.700300	1.700700	1.700200	1.699400	1.699000	1.698400	1.697200	1.699600	1.699100	1.698800	1.699900	1.700100	1.700200	1.700200	1.700300	1.700400	1.700400	1.700200	1.700300	1.698300	1.698500	1.698500	1.700500	1.699100	1.700500	1.699000	1.699000	1.698800	1.698700	1.699100	1.699000	1.699000
85.000000	1.703600	1.704900	1.706200	1.706400	1.705800	1.706100	1.704700	1.706100	1.706500	1.705900	1.705200	1.704800	1.704300	1.703100	1.705400	1.704900	1.704600	1.705700	1.705900	1.706000	1.706000	1.706100	1.706100	1.706200	1.706000	1.706100	1.704100	1.704400	1.704400	1.706200	1.704900	1.706200	1.704800	1.704800	1.704600	1.704500	1.705000	1.704800	1.704800
86.000000	1.708400	1.709700	1.710900	1.711100	1.710500	1.710900	1.709500	1.710800	1.711200	1.710700	1.710000	1.709600	1.709100	1.708000	1.710100	1.709700	1.709400	1.710400	1.710600	1.710700	1.710800	1.710800	1.710900	1.710900	1.710700	1.710800	1.708900	1.709200	1.709200	1.711000	1.709700	1.711000	1.709600	1.709600	1.709400	1.709300	1.709700	1.709600	1.709600
87.000000	1.712200	1.713400	1.714600	1.714800	1.714200	1.714600	1.713300	1.714500	1.714900	1.714400	1.713700	1.713300	1.712900	1.711800	1.713900	1.713500	1.713200	1.714100	1.714300	1.714400	1.714500	1.714500	1.714600	1.714600	1.714400	1.714500	1.712700	1.712900	1.713000	1.714700	1.713500	1.714700	1.713400	1.713400	1.713200	1.713100	1.713500	1.713400	1.713400
88.000000	1.715000	1.716100	1.717200	1.717400	1.716900	1.717200	1.716000	1.717100	1.717500	1.717000	1.716400	1.716000	1.715600	1.714500	1.716500	1.716200	1.715900	1.716800	1.717000	1.717100	1.717100	1.717200	1.717200	1.717300	1.717100	1.717100	1.715500	1.715700	1.715700	1.717300	1.716200	1.717300	1.716100	1.716100	1.715900	1.715800	1.716200	1.716100	1.716100
89.000000	1.716700	1.717800	1.718800	1.719000	1.718500	1.718800	1.717600	1.718700	1.719100	1.718700	1.718000	1.717700	1.717300	1.716300	1.718200	1.717800	1.717500	1.718400	1.718600	1.718700	1.718700	1.718800	1.718800	1.718900	1.718700	1.718700	1.717100	1.717300	1.717300	1.718900	1.717800	1.718900	1.717700	1.717700	1.717600	1.717500	1.717800	1.717700	1.717700
90.000000	1.717300	1.718300	1.719400	1.719600	1.719100	1.719400	1.718200	1.719300	1.719600	1.719200	1.718600	1.718300	1.717900	1.716900	1.718700	1.718400	1.718200	1.719000	1.719200	1.719200	1.719300	1.719300	1.719400	1.719400	1.719200	1.719300	1.717800	1.718000	1.718000	1.719400	1.718400	1.719500	1.718300	1.718300	1.718200	1.718100	1.718400	1.718300	1.718300
91.000000	1.716900	1.717900	1.718900	1.719100	1.718600	1.718900	1.717800	1.718800	1.719100	1.718700	1.718100	1.717800	1.717400	1.716500	1.718300	1.717900	1.717700	1.718500	1.718700	1.718700	1.718800	1.718800	1.718900	1.718900	1.718800	1.718800	1.717300	1.717500	1.717500	1.718900	1.718000	1.718900	1.717900	1.717900	1.717700	1.717600	1.718000	1.717900	1.717900
92.000000	1.715400	1.716400	1.717300	1.717500	1.717000	1.717300	1.716300	1.717300	1.717600	1.717200	1.716600	1.716300	1.716000	1.715100	1.716800	1.716400	1.716200	1.717000	1.717100	1.717200	1.717200	1.717300	1.717300	1.717400	1.717200	1.717300	1.715900	1.716000	1.716000	1.717400	1.716500	1.717400	1.716400	1.716400	1.716200	1.716100	1.716500	1.716400	1.716400
93.000000	1.712900	1.713800	1.714700	1.714900	1.714400	1.714700	1.713700	1.714700	1.715000	1.714600	1.714000	1.713800	1.713400	1.712600	1.714200	1.713900	1.713700	1.714400	1.714600	1.714600	1.714600	1.714700	1.714700	1.714800	1.714600	1.714700	1.713300	1.713500	1.713500	1.714800	1.713900	1.714800	1.713800	1.713800	1.713700	1.713600	1.713900	1.713800	1.713800
94.000000	1.709300	1.710200	1.711100	1.711200	1.710800	1.711100	1.710100	1.711000	1.711300	1.711000	1.710400	1.710200	1.709800	1.709000	1.710600	1.710300	1.710100	1.710800	1.710900	1.711000	1.711000	1.711000	1.711100	1.711100	1.711000	1.711000	1.709800	1.709900	1.709900	1.711200	1.710300	1.711200	1.710200	1.710200	1.710100	1.710000	1.710300	1.710200	1.710200
95.000000	1.704700	1.705600	1.706400	1.706600	1.706100	1.706400	1.705500	1.706300	1.706600	1.706300	1.705800	1.705500	1.705200	1.704400	1.705900	1.705600	1.705400	1.706100	1.706200	1.706300	1.706300	1.706400	1.706400	1.706400	1.706300	1.706400	1.705100	1.705300	1.705300	1.706500	1.705700	1.706500	1.705600	1.705600	1.705500	1.705400	1.705700	1.705600	1.705600
96.000000	1.699100	1.699900	1.700700	1.700800	1.700400	1.700700	1.699800	1.700600	1.700900	1.700600	1.700100	1.699900	1.699500	1.698800	1.700200	1.700000	1.699800	1.700400	1.700500	1.700600	1.700600	1.700700	1.700700	1.700700	1.700600	1.700600	1.699500	1.699600	1.699600	1.700800	1.700000	1.700800	1.699900	1.699900	1.699800	1.699700	1.700000	1.699900	1.699900
97.000000	1.692400	1.693200	1.694000	1.694100	1.693700	1.693900	1.693100	1.693900	1.694100	1.693800	1.693400	1.693200	1.692900	1.692200	1.693500	1.693300	1.693100	1.693700	1.693800	1.693900	1.693900	1.693900	1.694000	1.694000	1.693900	1.693900	1.692800	1.692900	1.692900	1.694000	1.693300	1.694000	1.693200	1.693200	1.693100	1.693000	1.693300	1.693200	1.693200
98.000000	1.684700	1.685500	1.686200	1.686300	1.686000	1.686200	1.685400	1.686100	1.686400	1.686100	1.685700	1.685400	1.685100	1.684500	1.685800	1.685500	1.685400	1.685900	1.686100	1.686100	1.686100	1.686200	1.686200	1.686200	1.686100	1.686200	1.685100	1.685200	1.685200	1.686200	1.685600	1.686300	1.685500	1.685500	1.685400	1.685300	1.685600	1.685500	1.685500
99.000000	1.676000	1.676700	1.677400	1.677600	1.677200	1.677400	1.676600	1.677400	1.677600	1.677300	1.676900	1.676700	1.676400	1.675800	1.677000	1.676800	1.676600	1.677200	1.677300	1.677300	1.677400	1.677400	1.677400	1.677500	1.677300	1.677400	1.676400	1.676500	1.676500	1.677500	1.676800	1.677500	1.676800	1.676800	1.676600	1.676600	1.676800	1.676800	1.676800
100.000000	1.666300	1.667000	1.667700	1.667800	1.667500	1.667700	1.666900	1.667600	1.667800	1.667600	1.667200	1.667000	1.666700	1.666100	1.667300	1.667100	1.666900	1.667400	1.667500	1.667600	1.667600	1.667600	1.667700	1.667700	1.667600	1.667600	1.666700	1.666800	1.666800	1.667700	1.667100	1.667700	1.667000	1.667000	1.666900	1.666900	1.667100	1.667000	1.667000
101.000000	1.655600	1.656300	1.656900	1.657000	1.656700	1.656900	1.656200	1.656900	1.657100	1.656800	1.656400	1.656200	1.656000	1.655400	1.656500	1.656300	1.656200	1.656700	1.656800	1.656800	1.656900	1.656900	1.656900	1.656900	1.656800	1.656900	1.656000	1.656100	1.656100	1.657000	1.656400	1.657000	1.656300	1.656300	1.656200	1.656100	1.656400	1.656300	1.656300
102.000000	1.643900	1.644600	1.645200	1.645300	1.645000	1.645200	1.644500	1.645100	1.645300	1.645100	1.644700	1.644600	1.644300	1.643700	1.644800	1.644600	1.644500	1.645000	1.645100	1.645100	1.645100	1.645200	1.645200	1.645200	1.645100	1.645200	1.644300	1.644400	1.644400	1.645200	1.644700	1.645200	1.644600	1.644600	1.644500	1.644500	1.644700	1.644600	1.644600
103.000000	1.631300	1.631900	1.632500	1.632600	1.632300	1.632500	1.631900	1.632500	1.632600	1.632400	1.632100	1.631900	1.631700	1.631100	1.632200	1.632000	1.631800	1.632300	1.632400	1.632400	1.632500	1.632500	1.632500	1.632500	1.632400	1.632500	1.631600	1.631700	1.631700	1.632500	1.632000	1.632600	1.631900	1.632000	1.631900	1.631800	1.632000	1.632000	1.632000
104.000000	1.617700	1.618300	1.618900	1.619000	1.618700	1.618900	1.618300	1.618800	1.619000	1.618800	1.618500	1.618300	1.618100	1.617600	1.618600	1.618400	1.618200	1.618700	1.618800	1.618800	1.618800	1.618900	1.618900	1.618900	1.618800	1.618800	1.618100	1.618200	1.618200	1.618900	1.618400	1.618900	1.618400	1.618400	1.618300	1.618200	1.618400	1.618400	1.618400
105.000000	1.603200	1.603800	1.604300	1.604400	1.604200	1.604300	1.603700	1.604300	1.604500	1.604200	1.603900	1.603800	1.603600	1.603100	1.604000	1.603900	1.603700	1.604200	1.604200	1.604300	1.604300	1.604300	1.604300	1.604400	1.604300	1.604300	1.603500	1.603600	1.603600	1.604400	1.603900	1.604400	1.603800	1.603800	1.603700	1.603700	1.603900	1.603800	1.603800
106.000000	1.587800	1.588400	1.588900	1.589000	1.588700	1.588900	1.588300	1.588800	1.589000	1.588800	1.588500	1.588300	1.588200	1.587700	1.588600	1.588400	1.588300	1.588700	1.588800	1.588800	1.588800	1.588900	1.588900	1.588900	1.588800	1.588800	1.588100	1.588200	1.588200	1.588900	1.588400	1.588900	1.588400	1.588400	1.588300	1.588300	1.588400	1.588400	1.588400
107.000000	1.571500	1.572000	1.572500	1.572600	1.572400	1.572500	1.572000	1.572500	1.572600	1.572500	1.572200	1.572000	1.571800	1.571400	1.572200	1.572100	1.572000	1.572400	1.572400	1.572500	1.572500	1.572500	1.572500	1.572500	1.572500	1.572500	1.571800	1.571900	1.571900	1.572600	1.572100	1.572600	1.572100	1.572100	1.572000	1.572000	1.572100	1.572100	1.572100
108.000000	1.554300	1.554900	1.555300	1.555400	1.555200	1.555300	1.554800	1.555300	1.555400	1.555200	1.555000	1.554800	1.554700	1.554200	1.555000	1.554900	1.554800	1.555200	1.555200	1.555300	1.555300	1.555300	1.555300	1.555300	1.555300	1.555300	1.554600	1.554700	1.554700	1.555300	1.554900	1.555300	1.554900	1.554900	1.554800	1.554800	1.554900	1.554900	1.554900
109.000000	1.536300	1.536800	1.537200	1.537300	1.537100	1.537200	1.536800	1.537200	1.537400	1.537200	1.536900	1.536800	1.536600	1.536200	1.537000	1.536900	1.536800	1.537100	1.537200	1.537200	1.537200	1.537200	1.537300	1.537300	1.537200	1.537200	1.536600	1.536700	1.536700	1.537300	1.536900	1.537300	1.536800	1.536800	1.536800	1.536700	1.536900	1.536800	1.536800
110.000000	1.517500	1.517900	1.518400	1.518400	1.518200	1.518400	1.517900	1.518300	1.518500	1.518300	1.518100	1.517900	1.517800	1.517400	1.518100	1.518000	1.517900	1.518200	1.518300	1.518300	1.518300	1.518300	1.518400	1.518400	1.518300	1.518300	1.517700	1.517800	1.517800	1.518400	1.518000	1.518400	1.518000	1.518000	1.517900	1.517900	1.518000	1.518000	1.518000
111.000000	1.497800	1.498300	1.498700	1.498700	1.498500	1.498700	1.498200	1.498600	1.498800	1.498600	1.498400	1.498300	1.498100	1.497700	1.498400	1.498300	1.498200	1.498500	1.498600	1.498600	1.498600	1.498700	1.498700	1.498700	1.498600	1.498700	1.498100	1.498200	1.498200	1.498700	1.498300	1.498700	1.498300	1.498300	1.498200	1.498200	1.498300	1.498300	1.498300
112.000000	1.477400	1.477800	1.478200	1.478300	1.478100	1.478200	1.477800	1.478200	1.478300	1.478200	1.477900	1.477800	1.477700	1.477300	1.478000	1.477900	1.477800	1.478100	1.478100	1.478200	1.478200	1.478200	1.478200	1.478200	1.478200	1.478200	1.477700	1.477700	1.477700	1.478200	1.477900	1.478200	1.477900	1.477900	1.477800	1.477800	1.477900	1.477900	1.477900
113.000000	1.456200	1.456600	1.457000	1.457100	1.456900	1.457000	1.456600	1.457000	1.457100	1.456900	1.456700	1.456600	1.456500	1.456100	1.456800	1.456700	1.456600	1.456900	1.456900	1.456900	1.457000	1.457000	1.457000	1.457000	1.457000	1.457000	1.456500	1.456500	1.456500	1.457000	1.456700	1.457000	1.456700	1.456700	1.456600	1.456600	1.456700	1.456700	1.456700
114.000000	1.434300	1.434700	1.435000	1.435100	1.434900	1.435000	1.434700	1.435000	1.435100	1.435000	1.434800	1.434700	1.434600	1.434200	1.434900	1.434700	1.434700	1.434900	1.435000	1.435000	1.435000	1.435000	1.435100	1.435100	1.435000	1.435000	1.434500	1.434600	1.434600	1.435100	1.434800	1.435100	1.434700	1.434700	1.434700	1.434600	1.434800	1.434700	1.434700
115.000000	1.411700	1.412100	1.412400	1.412500	1.412300	1.412400	1.412000	1.412400	1.412500	1.412400	1.412200	1.412100	1.411900	1.411600	1.412200	1.412100	1.412000	1.412300	1.412300	1.412400	1.412400	1.412400	1.412400	1.412400	1.412400	1.412400	1.411900	1.412000	1.412000	1.412400	1.412100	1.412400	1.412100	1.412100	1.412000	1.412000	1.412100	1.412100	1.412100
116.000000	1.388400	1.388800	1.389100	1.389100	1.389000	1.389100	1.388700	1.389100	1.389200	1.389000	1.388900	1.388800	1.388600	1.388400	1.388900	1.388800	1.388700	1.389000	1.389000	1.389100	1.389100	1.389100	1.389100	1.389100	1.389100	1.389100	1.388600	1.388700	1.388700	1.389100	1.388800	1.389100	1.388800	1.388800	1.388800	1.388700	1.388800	1.388800	1.388800
117.000000	1.364500	1.364800	1.365100	1.365200	1.365000	1.365100	1.364800	1.365100	1.365200	1.365100	1.364900	1.364800	1.364700	1.364400	1.365000	1.364900	1.364800	1.365000	1.365100	1.365100	1.365100	1.365100	1.365100	1.365100	1.365100	1.365100	1.364700	1.364800	1.364800	1.365200	1.364900	1.365200	1.364900	1.364900	1.364800	1.364800	1.364900	1.364900	1.364900
118.000000	1.340000	1.340300	1.340600	1.340600	1.340500	1.340600	1.340200	1.340500	1.340600	1.340500	1.340400	1.340300	1.340200	1.339900	1.340400	1.340300	1.340200	1.340500	1.340500	1.340500	1.340500	1.340500	1.340600	1.340600	1.340500	1.340500	1.340200	1.340200	1.340200	1.340600	1.340300	1.340600	1.340300	1.340300	1.340300	1.340200	1.340300	1.340300	1.340300
119.000000	1.314800	1.315100	1.315400	1.315400	1.315300	1.315400	1.315100	1.315400	1.315500	1.315400	1.315200	1.315100	1.315000	1.314800	1.315300	1.315200	1.315100	1.315300	1.315400	1.315400	1.315400	1.315400	1.315400	1.315400	1.315400	1.315400	1.315000	1.315100	1.315100	1.315400	1.315200	1.315400	1.315200	1.315200	1.315100	1.315100	1.315200	1.315200	1.315200
120.000000	1.289200	1.289400	1.289700	1.289700	1.289600	1.289700	1.289400	1.289700	1.289800	1.289700	1.289500	1.289400	1.289300	1.289100	1.289600	1.289500	1.289400	1.289600	1.289700	1.289700	1.289700	1.289700	1.289700	1.289700	1.289700	1.289700	1.289300	1.289400	1.289400	1.289700	1.289500	1.289700	1.289500	1.289500	1.289400	1.289400	1.289500	1.289500	1.289500
121.000000	1.263000	1.263200	1.263500	1.263500	1.263400	1.263500	1.263200	1.263500	1.263500	1.263400	1.263300	1.263200	1.263100	1.262900	1.263300	1.263300	1.263200	1.263400	1.263400	1.263400	1.263500	1.263500	1.263500	1.263500	1.263400	1.263500	1.263100	1.263200	1.263200	1.263500	1.263300	1.263500	1.263300	1.263300	1.263200	1.263200	1.263300	1.263300	1.263300
122.000000	1.236300	1.236500	1.236800	1.236800	1.236700	1.236800	1.236500	1.236700	1.236800	1.236700	1.236600	1.236500	1.236400	1.236200	1.236600	1.236600	1.236500	1.236700	1.236700	1.236700	1.236700	1.236700	1.236800	1.236800	1.236700	1.236700	1.236400	1.236500	1.236500	1.236800	1.236600	1.236800	1.236600	1.236600	1.236500	1.236500	1.236600	1.236600	1.236600
123.000000	1.209100	1.209400	1.209600	1.209600	1.209500	1.209600	1.209300	1.209600	1.209600	1.209600	1.209400	1.209400	1.209300	1.209100	1.209500	1.209400	1.209300	1.209500	1.209500	1.209600	1.209600	1.209600	1.209600	1.209600	1.209600	1.209600	1.209300	1.209300	1.209300	1.209600	1.209400	1.209600	1.209400	1.209400	1.209400	1.209300	1.209400	1.209400	1.209400
124.000000	1.181600	1.181800	1.182000	1.182000	1.181900	1.182000	1.181800	1.182000	1.182000	1.182000	1.181800	1.181800	1.181700	1.181500	1.181900	1.181800	1.181800	1.181900	1.182000	1.182000	1.182000	1.182000	1.182000	1.182000	1.182000	1.182000	1.181700	1.181700	1.181700	1.182000	1.181800	1.182000	1.181800	1.181800	1.181800	1.181800	1.181800	1.181800	1.181800
125.000000	1.153600	1.153800	1.154000	1.154000	1.153900	1.154000	1.153800	1.154000	1.154100	1.154000	1.153900	1.153800	1.153700	1.153600	1.153900	1.153800	1.153800	1.153900	1.154000	1.154000	1.154000	1.154000	1.154000	1.154000	1.154000	1.154000	1.153700	1.153800	1.153800	1.154000	1.153900	1.154000	1.153800	1.153800	1.153800	1.153800	1.153900	1.153800	1.153800
126.000000	1.125300	1.125500	1.125700	1.125700	1.125600	1.125700	1.125500	1.125700	1.125700	1.125600	1.125500	1.125500	1.125400	1.125200	1.125600	1.125500	1.125500	1.125600	1.125600	1.125700	1.125700	1.125700	1.125700	1.125700	1.125700	1.125700	1.125400	1.125400	1.125400	1.125700	1.125500	1.125700	1.125500	1.125500	1.125500	1.125500	1.125500	1.125500	1.125500
127.000000	1.096600	1.096800	1.097000	1.097000	1.097000	1.097000	1.096800	1.097000	1.097100	1.097000	1.096900	1.096800	1.096800	1.096600	1.096900	1.096900	1.096800	1.097000	1.097000	1.097000	1.097000	1.097000	1.097000	1.097000	1.097000	1.097000	1.096800	1.096800	1.096800	1.097000	1.096900	1.097000	1.096900	1.096900	1.096800	1.096800	1.096900	1.096900	1.096900
128.000000	1.067700	1.067900	1.068100	1.068100	1.068000	1.068100	1.067900	1.068100	1.068100	1.068100	1.068000	1.067900	1.067900	1.067700	1.068000	1.067900	1.067900	1.068000	1.068100	1.068100	1.068100	1.068100	1.068100	1.068100	1.068100	1.068100	1.067800	1.067900	1.067900	1.068100	1.067900	1.068100	1.067900	1.067900	1.067900	1.067900	1.067900	1.067900	1.067900
129.000000	1.038600	1.038700	1.038900	1.038900	1.038800	1.038900	1.038700	1.038900	1.038900	1.038900	1.038800	1.038700	1.038700	1.038500	1.038800	1.038800	1.038700	1.038800	1.038900	1.038900	1.038900	1.038900	1.038900	1.038900	1.038900	1.038900	1.038700	1.038700	1.038700	1.038900	1.038800	1.038900	1.038800	1.038800	1.038700	1.038700	1.038800	1.038800	1.038800
130.000000	1.009200	1.009300	1.009500	1.009500	1.009400	1.009500	1.009300	1.009500	1.009500	1.009500	1.009400	1.009300	1.009300	1.009200	1.009400	1.009400	1.009300	1.009400	1.009500	1.009500	1.009500	1.009500	1.009500	1.009500	1.009500	1.009500	1.009300	1.009300	1.009300	1.009500	1.009400	1.009500	1.009400	1.009400	1.009300	1.009300	1.009400	1.009400	1.009400
131.000000	0.979600	0.979800	0.979900	0.979900	0.979900	0.979900	0.979800	0.979900	0.979900	0.979900	0.979800	0.979800	0.979700	0.979600	0.979800	0.979800	0.979800	0.979900	0.979900	0.979900	0.979900	0.979900	0.979900	0.979900	0.979900	0.979900	0.979700	0.979700	0.979700	0.979900	0.979800	0.979900	0.979800	0.979800	0.979800	0.979800	0.979800	0.979800	0.979800
132.000000	0.949900	0.950100	0.950200	0.950200	0.950100	0.950200	0.950000	0.950200	0.950200	0.950200	0.950100	0.950100	0.950000	0.949900	0.950100	0.950100	0.950100	0.950200	0.950200	0.950200	0.950200	0.950200	0.950200	0.950200	0.950200	0.950200	0.950000	0.950000	0.950000	0.950200	0.950100	0.950200	0.950100	0.950100	0.950100	0.950000	0.950100	0.950100	0.950100
133.000000	0.920100	0.920200	0.920400	0.920400	0.920300	0.920400	0.920200	0.920400	0.920400	0.920300	0.920300	0.920200	0.920200	0.920100	0.920300	0.920300	0.920200	0.920300	0.920300	0.920400	0.920400	0.920400	0.920400	0.920400	0.920400	0.920400	0.920200	0.920200	0.920200	0.920400	0.920300	0.920400	0.920300	0.920300	0.920200	0.920200	0.920300	0.920300	0.920300
134.000000	0.890200	0.890400	0.890500	0.890500	0.890400	0.890500	0.890300	0.890500	0.890500	0.890500	0.890400	0.890400	0.890300	0.890200	0.890400	0.890400	0.890400	0.890400	0.890500	0.890500	0.890500	0.890500	0.890500	0.890500	0.890500	0.890500	0.890300	0.890300	0.890300	0.890500	0.890400	0.890500	0.890400	0.890400	0.890400	0.890300	0.890400	0.890400	0.890400
135.000000	0.860300	0.860400	0.860500	0.860600	0.860500	0.860500	0.860400	0.860500	0.860600	0.860500	0.860500	0.860400	0.860400	0.860300	0.860500	0.860500	0.860400	0.860500	0.860500	0.860500	0.860500	0.860500	0.860600	0.860600	0.860500	0.860500	0.860400	0.860400	0.860400	0.860600	0.860500	0.860600	0.860500	0.860500	0.860400	0.860400	0.860500	0.860500	0.860500
136.000000	0.830400	0.830500	0.830600	0.830600	0.830600	0.830600	0.830500	0.830600	0.830700	0.830600	0.830600	0.830500	0.830500	0.830400	0.830600	0.830500	0.830500	0.830600	0.830600	0.830600	0.830600	0.830600	0.830600	0.830600	0.830600	0.830600	0.830500	0.830500	0.830500	0.830600	0.830600	0.830600	0.830500	0.830500	0.830500	0.830500	0.830600	0.830500	0.830500
137.000000	0.800600	0.800700	0.800800	0.800800	0.800700	0.800800	0.800700	0.800700	0.800800	0.800700	0.800700	0.800700	0.800600	0.800500	0.800700	0.800700	0.800700	0.800700	0.800700	0.800700	0.800700	0.800800	0.800800	0.800800	0.800700	0.800800	0.800600	0.800600	0.800600	0.800800	0.800700	0.800800	0.800700	0.800700	0.800700	0.800700	0.800700	0.800700	0.800700
138.000000	0.770800	0.770900	0.771000	0.771000	0.770900	0.771000	0.770900	0.770900	0.771000	0.770900	0.770900	0.770900	0.770800	0.770800	0.770900	0.770900	0.770900	0.770900	0.770900	0.770900	0.770900	0.771000	0.771000	0.771000	0.770900	0.771000	0.770800	0.770900	0.770900	0.771000	0.770900	0.771000	0.770900	0.770900	0.770900	0.770900	0.770900	0.770900	0.770900
139.000000	0.741100	0.741200	0.741300	0.741300	0.741200	0.741300	0.741200	0.741300	0.741300	0.741300	0.741200	0.741200	0.741200	0.741100	0.741200	0.741200	0.741200	0.741200	0.741300	0.741300	0.741300	0.741300	0.741300	0.741300	0.741300	0.741300	0.741200	0.741200	0.741200	0.741300	0.741200	0.741300	0.741200	0.741200	0.741200	0.741200	0.741200	0.741200	0.741200
140.000000	0.711600	0.711700	0.711700	0.711700	0.711700	0.711700	0.711700	0.711700	0.711800	0.711700	0.711700	0.711700	0.711600	0.711600	0.711700	0.711700	0.711700	0.711700	0.711700	0.711700	0.711700	0.711700	0.711700	0.711700	0.711700	0.711700	0.711600	0.711600	0.711600	0.711700	0.711700	0.711700	0.711700	0.711700	0.711700	0.711700	0.711700	0.711700	0.711700
141.000000	0.682200	0.682300	0.682400	0.682400	0.682400	0.682400	0.682300	0.682400	0.682400	0.682400	0.682300	0.682300	0.682300	0.682200	0.682400	0.682300	0.682300	0.682400	0.682400	0.682400	0.682400	0.682400	0.682400	0.682400	0.682400	0.682400	0.682300	0.682300	0.682300	0.682400	0.682300	0.682400	0.682300	0.682300	0.682300	0.682300	0.682300	0.682300	0.682300
142.000000	0.653100	0.653200	0.653300	0.653300	0.653200	0.653300	0.653200	0.653300	0.653300	0.653300	0.653200	0.653200	0.653200	0.653100	0.653200	0.653200	0.653200	0.653200	0.653300	0.653300	0.653300	0.653300	0.653300	0.653300	0.653300	0.653300	0.653200	0.653200	0.653200	0.653300	0.653200	0.653300	0.653200	0.653200	0.653200	0.653200	0.653200	0.653200	0.653200
143.000000	0.624300	0.624300	0.624400	0.624400	0.624400	0.624400	0.624300	0.624400	0.624400	0.624400	0.624400	0.624300	0.624300	0.624300	0.624400	0.624300	0.624300	0.624400	0.624400	0.624400	0.624400	0.624400	0.624400	0.624400	0.624400	0.624400	0.624300	0.624300	0.624300	0.624400	0.624400	0.624400	0.624300	0.624300	0.624300	0.624300	0.624400	0.624300	0.624300
144.000000	0.595700	0.595800	0.595800	0.595800	0.595800	0.595800	0.595800	0.595800	0.595800	0.595800	0.595800	0.595800	0.595700	0.595700	0.595800	0.595800	0.595800	0.595800	0.595800	0.595800	0.595800	0.595800	0.595800	0.595800	0.595800	0.595800	0.595700	0.595800	0.595800	0.595800	0.595800	0.595800	0.595800	0.595800	0.595800	0.595800	0.595800	0.595800	0.595800
145.000000	0.567500	0.567500	0.567600	0.567600	0.567600	0.567600	0.567500	0.567600	0.567600	0.567600	0.567500	0.567500	0.567500	0.567500	0.567500	0.567500	0.567500	0.567600	0.567600	0.567600	0.567600	0.567600	0.567600	0.567600	0.567600	0.567600	0.567500	0.567500	0.567500	0.567600	0.567500	0.567600	0.567500	0.567500	0.567500	0.567500	0.567500	0.567500	0.567500
146.000000	0.539600	0.539600	0.539700	0.539700	0.539700	0.539700	0.539600	0.539700	0.539700	0.539700	0.539700	0.539600	0.539600	0.539600	0.539700	0.539700	0.539600	0.539700	0.539700	0.539700	0.539700	0.539700	0.539700	0.539700	0.539700	0.539700	0.539600	0.539600	0.539600	0.539700	0.539700	0.539700	0.539700	0.539700	0.539600	0.539600	0.539700	0.539700	0.539700
147.000000	0.512100	0.512200	0.512200	0.512200	0.512200	0.512200	0.512200	0.512200	0.512200	0.512200	0.512200	0.512200	0.512100	0.512100	0.512200	0.512200	0.512200	0.512200	0.512200	0.512200	0.512200	0.512200	0.512200	0.512200	0.512200	0.512200	0.512100	0.512200	0.512200	0.512200	0.512200	0.512200	0.512200	0.512200	0.512200	0.512200	0.512200	0.512200	0.512200
148.000000	0.485100	0.485100	0.485100	0.485200	0.485100	0.485100	0.485100	0.485100	0.485200	0.485100	0.485100	0.485100	0.485100	0.485100	0.485100	0.485100	0.485100	0.485100	0.485100	0.485100	0.485100	0.485100	0.485100	0.485100	0.485100	0.485100	0.485100	0.485100	0.485100	0.485200	0.485100	0.485200	0.485100	0.485100	0.485100	0.485100	0.485100	0.485100	0.485100
149.000000	0.458500	0.458500	0.458600	0.458600	0.458500	0.458600	0.458500	0.458500	0.458600	0.458500	0.458500	0.458500	0.458500	0.458500	0.458500	0.458500	0.458500	0.458500	0.458500	0.458500	0.458500	0.458600	0.458600	0.458600	0.458500	0.458600	0.458500	0.458500	0.458500	0.458600	0.458500	0.458600	0.458500	0.458500	0.458500	0.458500	0.458500	0.458500	0.458500
150.000000	0.432400	0.432400	0.432400	0.432500	0.432400	0.432400	0.432400	0.432400	0.432500	0.432400	0.432400	0.432400	0.432400	0.432400	0.432400	0.432400	0.432400	0.432400	0.432400	0.432400	0.432400	0.432400	0.432500	0.432500	0.432400	0.432400	0.432400	0.432400	0.432400	0.432500	0.432400	0.432500	0.432400	0.432400	0.432400	0.432400	0.432400	0.432400	0.432400
151.000000	0.406800	0.406800	0.406900	0.406900	0.406900	0.406900	0.406800	0.406900	0.406900	0.406900	0.406900	0.406800	0.406800	0.406800	0.406900	0.406800	0.406800	0.406900	0.406900	0.406900	0.406900	0.406900	0.406900	0.406900	0.406900	0.406900	0.406800	0.406800	0.406800	0.406900	0.406900	0.406900	0.406800	0.406800	0.406800	0.406800	0.406900	0.406800	0.406800
152.000000	0.381800	0.381800	0.381900	0.381900	0.381800	0.381900	0.381800	0.381900	0.381900	0.381900	0.381800	0.381800	0.381800	0.381800	0.381800	0.381800	0.381800	0.381800	0.381900	0.381900	0.381900	0.381900	0.381900	0.381900	0.381900	0.381900	0.381800	0.381800	0.381800	0.381900	0.381800	0.381900	0.381800	0.381800	0.381800	0.381800	0.381800	0.381800	0.381800
153.000000	0.357400	0.357400	0.357400	0.357400	0.357400	0.357400	0.357400	0.357400	0.357400	0.357400	0.357400	0.357400	0.357400	0.357400	0.357400	0.357400	0.357400	0.357400	0.357400	0.357400	0.357400	0.357400	0.357400	0.357400	0.357400	0.357400	0.357400	0.357400	0.357400	0.357400	0.357400	0.357400	0.357400	0.357400	0.357400	0.357400	0.357400	0.357400	0.357400
154.000000	0.333600	0.333600	0.333600	0.333600	0.333600	0.333600	0.333600	0.333600	0.333600	0.333600	0.333600	0.333600	0.333600	0.333600	0.333600	0.333600	0.333600	0.333600	0.333600	0.333600	0.333600	0.333600	0.333600	0.333600	0.333600	0.333600	0.333600	0.333600	0.333600	0.333600	0.333600	0.333600	0.333600	0.333600	0.333600	0.333600	0.333600	0.333600	0.333600
155.000000	0.310400	0.310400	0.310400	0.310400	0.310400	0.310400	0.310400	0.310400	0.310400	0.310400	0.310400	0.310400	0.310400	0.310400	0.310400	0.310400	0.310400	0.310400	0.310400	0.310400	0.310400	0.310400	0.310400	0.310400	0.310400	0.310400	0.310400	0.310400	0.310400	0.310400	0.310400	0.310400	0.310400	0.310400	0.310400	0.310400	0.310400	0.310400	0.310400
156.000000	0.287900	0.287900	0.288000	0.288000	0.287900	0.288000	0.287900	0.288000	0.288000	0.287900	0.287900	0.287900	0.287900	0.287900	0.287900	0.287900	0.287900	0.287900	0.287900	0.288000	0.288000	0.288000	0.288000	0.288000	0.288000	0.288000	0.287900	0.287900	0.287900	0.288000	0.287900	0.288000	0.287900	0.287900	0.287900	0.287900	0.287900	0.287900	0.287900
157.000000	0.266100	0.266100	0.266200	0.266200	0.266200	0.266200	0.266100	0.266200	0.266200	0.266200	0.266100	0.266100	0.266100	0.266100	0.266200	0.266100	0.266100	0.266200	0.266200	0.266200	0.266200	0.266200	0.266200	0.266200	0.266200	0.266200	0.266100	0.266100	0.266100	0.266200	0.266100	0.266200	0.266100	0.266100	0.266100	0.266100	0.266100	0.266100	0.266100
158.000000	0.245100	0.245100	0.245100	0.245100	0.245100	0.245100	0.245100	0.245100	0.245100	0.245100	0.245100	0.245100	0.245100	0.245100	0.245100	0.245100	0.245100	0.245100	0.245100	0.245100	0.245100	0.245100	0.245100	0.245100	0.245100	0.245100	0.245100	0.245100	0.245100	0.245100	0.245100	0.245100	0.245100	0.245100	0.245100	0.245100	0.245100	0.245100	0.245100
159.000000	0.224800	0.224800	0.224800	0.224800	0.224800	0.224800	0.224800	0.224800	0.224800	0.224800	0.224800	0.224800	0.224800	0.224800	0.224800	0.224800	0.224800	0.224800	0.224800	0.224800	0.224800	0.224800	0.224800	0.224800	0.224800	0.224800	0.224800	0.224800	0.224800	0.224800	0.224800	0.224800	0.224800	0.224800	0.224800	0.224800	0.224800	0.224800	0.224800
160.000000	0.205200	0.205200	0.205200	0.205200	0.205200	0.205200	0.205200	0.205200	0.205200	0.205200	0.205200	0.205200	0.205200	0.205200	0.205200	0.205200	0.205200	0.205200	0.205200	0.205200	0.205200	0.205200	0.205200	0.205200	0.205200	0.205200	0.205200	0.205200	0.205200	0.205200	0.205200	0.205200	0.205200	0.205200	0.205200	0.205200	0.205200	0.205200	0.205200
161.000000	0.186500	0.186500	0.186500	0.186500	0.186500	0.186500	0.186500	0.186500	0.186500	0.186500	0.186500	0.186500	0.186500	0.186500	0.186500	0.186500	0.186500	0.186500	0.186500	0.186500	0.186500	0.186500	0.186500	0.186500	0.186500	0.186500	0.186500	0.186500	0.186500	0.186500	0.186500	0.186500	0.186500	0.186500	0.186500	0.186500	0.186500	0.186500	0.186500
162.000000	0.168600	0.168600	0.168600	0.168600	0.168600	0.168600	0.168600	0.168600	0.168600	0.168600	0.168600	0.168600	0.168600	0.168600	0.168600	0.168600	0.168600	0.168600	0.168600	0.168600	0.168600	0.168600	0.168600	0.168600	0.168600	0.168600	0.168600	0.168600	0.168600	0.168600	0.168600	0.168600	0.168600	0.168600	0.168600	0.168600	0.168600	0.168600	0.168600
163.000000	0.151500	0.151500	0.151500	0.151500	0.151500	0.151500	0.151500	0.151500	0.151500	0.151500	0.151500	0.151500	0.151500	0.151500	0.151500	0.151500	0.151500	0.151500	0.151500	0.151500	0.151500	0.151500	0.151500	0.151500	0.151500	0.151500	0.151500	0.151500	0.151500	0.151500	0.151500	0.151500	0.151500	0.151500	0.151500	0.151500	0.151500	0.151500	0.151500
164.000000	0.135300	0.135300	0.135300	0.135300	0.135300	0.135300	0.135300	0.135300	0.135300	0.135300	0.135300	0.135300	0.135300	0.135300	0.135300	0.135300	0.135300	0.135300	0.135300	0.135300	0.135300	0.135300	0.135300	0.135300	0.135300	0.135300	0.135300	0.135300	0.135300	0.135300	0.135300	0.135300	0.135300	0.135300	0.135300	0.135300	0.135300	0.135300	0.135300
165.000000	0.120000	0.120000	0.120000	0.120000	0.120000	0.120000	0.120000	0.120000	0.120000	0.120000	0.120000	0.120000	0.120000	0.120000	0.120000	0.120000	0.120000	0.120000	0.120000	0.120000	0.120000	0.120000	0.120000	0.120000	0.120000	0.120000	0.120000	0.120000	0.120000	0.120000	0.120000	0.120000	0.120000	0.120000	0.120000	0.120000	0.120000	0.120000	0.120000
166.000000	0.105600	0.105600	0.105600	0.105600	0.105600	0.105600	0.105600	0.105600	0.105600	0.105600	0.105600	0.105600	0.105600	0.105600	0.105600	0.105600	0.105600	0.105600	0.105600	0.105600	0.105600	0.105600	0.105600	0.105600	0.105600	0.105600	0.105600	0.105600	0.105600	0.105600	0.105600	0.105600	0.105600	0.105600	0.105600	0.105600	0.105600	0.105600	0.105600
167.000000	0.092100	0.092100	0.092100	0.092100	0.092100	0.092100	0.092100	0.092100	0.092100	0.092100	0.092100	0.092100	0.092100	0.092100	0.092100	0.092100	0.092100	0.092100	0.092100	0.092100	0.092100	0.092100	0.092100	0.092100	0.092100	0.092100	0.092100	0.092100	0.092100	0.092100	0.092100	0.092100	0.092100	0.092100	0.092100	0.092100	0.092100	0.092100	0.092100
168.000000	0.079500	0.079500	0.079500	0.079500	0.079500	0.079500	0.079500	0.079500	0.079500	0.079500	0.079500	0.079500	0.079500	0.079500	0.079500	0.079500	0.079500	0.079500	0.079500	0.079500	0.079500	0.079500	0.079500	0.079500	0.079500	0.079500	0.079500	0.079500	0.079500	0.079500	0.079500	0.079500	0.079500	0.079500	0.079500	0.079500	0.079500	0.079500	0.079500
169.000000	0.067900	0.067900	0.067900	0.067900	0.067900	0.067900	0.067900	0.067900	0.067900	0.067900	0.067900	0.067900	0.067900	0.067900	0.067900	0.067900	0.067900	0.067900	0.067900	0.067900	0.067900	0.067900	0.067900	0.067900	0.067900	0.067900	0.067900	0.067900	0.067900	0.067900	0.067900	0.067900	0.067900	0.067900	0.067900	0.067900	0.067900	0.067900	0.067900
170.000000	0.057300	0.057300	0.057300	0.057300	0.057300	0.057300	0.057300	0.057300	0.057300	0.057300	0.057300	0.057300	0.057300	0.057300	0.057300	0.057300	0.057300	0.057300	0.057300	0.057300	0.057300	0.057300	0.057300	0.057300	0.057300	0.057300	0.057300	0.057300	0.057300	0.057300	0.057300	0.057300	0.057300	0.057300	0.057300	0.057300	0.057300	0.057300	0.057300
171.000000	0.047600	0.047600	0.047600	0.047600	0.047600	0.047600	0.047600	0.047600	0.047600	0.047600	0.047600	0.047600	0.047600	0.047600	0.047600	0.047600	0.047600	0.047600	0.047600	0.047600	0.047600	0.047600	0.047600	0.047600	0.047600	0.047600	0.047600	0.047600	0.047600	0.047600	0.047600	0.047600	0.047600	0.047600	0.047600	0.047600	0.047600	0.047600	0.047600
172.000000	0.038900	0.038900	0.038900	0.038900	0.038900	0.038900	0.038900	0.038900	0.038900	0.038900	0.038900	0.038900	0.038900	0.038900	0.038900	0.038900	0.038900	0.038900	0.038900	0.038900	0.038900	0.038900	0.038900	0.038900	0.038900	0.038900	0.038900	0.038900	0.038900	0.038900	0.038900	0.038900	0.038900	0.038900	0.038900	0.038900	0.038900	0.038900	0.038900
173.000000	0.031200	0.031200	0.031200	0.031200	0.031200	0.031200	0.031200	0.031200	0.031200	0.031200	0.031200	0.031200	0.031200	0.031200	0.031200	0.031200	0.031200	0.031200	0.031200	0.031200	0.031200	0.031200	0.031200	0.031200	0.031200	0.031200	0.031200	0.031200	0.031200	0.031200	0.031200	0.031200	0.031200	0.031200	0.031200	0.031200	0.031200	0.031200	0.031200
174.000000	0.024600	0.024600	0.024600	0.024600	0.024600	0.024600	0.024600	0.024600	0.024600	0.024600	0.024600	0.024600	0.024600	0.024600	0.024600	0.024600	0.024600	0.024600	0.024600	0.024600	0.024600	0.024600	0.024600	0.024600	0.024600	0.024600	0.024600	0.024600	0.024600	0.024600	0.024600	0.024600	0.024600	0.024600	0.024600	0.024600	0.024600	0.024600	0.024600
175.000000	0.018900	0.018900	0.018900	0.018900	0.018900	0.018900	0.018900	0.018900	0.018900	0.018900	0.018900	0.018900	0.018900	0.018900	0.018900	0.018900	0.018900	0.018900	0.018900	0.018900	0.018900	0.018900	0.018900	0.018900	0.018900	0.018900	0.018900	0.018900	0.018900	0.018900	0.018900	0.018900	0.018900	0.018900	0.018900	0.018900	0.018900	0.018900	0.018900
176.000000	0.014300	0.014300	0.014300	0.014300	0.014300	0.014300	0.014300	0.014300	0.014300	0.014300	0.014300	0.014300	0.014300	0.014300	0.014300	0.014300	0.014300	0.014300	0.014300	0.014300	0.014300	0.014300	0.014300	0.014300	0.014300	0.014300	0.014300	0.014300	0.014300	0.014300	0.014300	0.014300	0.014300	0.014300	0.014300	0.014300	0.014300	0.014300	0.014300
177.000000	0.010700	0.010700	0.010700	0.010700	0.010700	0.010700	0.010700	0.010700	0.010700	0.010700	0.010700	0.010700	0.010700	0.010700	0.010700	0.010700	0.010700	0.010700	0.010700	0.010700	0.010700	0.010700	0.010700	0.010700	0.010700	0.010700	0.010700	0.010700	0.010700	0.010700	0.010700	0.010700	0.010700	0.010700	0.010700	0.010700	0.010700	0.010700	0.010700
178.000000	0.008100	0.008100	0.008100	0.008100	0.008100	0.008100	0.008100	0.008100	0.008100	0.008100	0.008100	0.008100	0.008100	0.008100	0.008100	0.008100	0.008100	0.008100	0.008100	0.008100	0.008100	0.008100	0.008100	0.008100	0.008100	0.008100	0.008100	0.008100	0.008100	0.008100	0.008100	0.008100	0.008100	0.008100	0.008100	0.008100	0.008100	0.008100	0.008100
179.000000	0.006500	0.006500	0.006500	0.006500	0.006500	0.006500	0.006500	0.006500	0.006500	0.006500	0.006500	0.006500	0.006500	0.006500	0.006500	0.006500	0.006500	0.006500	0.006500	0.006500	0.006500	0.006500	0.006500	0.006500	0.006500	0.006500	0.006500	0.006500	0.006500	0.006500	0.006500	0.006500	0.006500	0.006500	0.006500	0.006500	0.006500	0.006500	0.006500
180.000000	0.006000	0.006000	0.006000	0.006000	0.006000	0.006000	0.006000	0.006000	0.006000	0.006000	0.006000	0.006000	0.006000	0.006000	0.006000	0.006000	0.006000	0.006000	0.006000	0.006000	0.006000	0.006000	0.006000	0.006000	0.006000	0.006000	0.006000	0.006000	0.006000	0.006000	0.006000	0.006000	0.006000	0.006000	0.006000	0.006000	0.006000	0.006000	0.006000
