First column is AoA (deg) and first row is Reynolds Number
0.000000	200000.000000	300000.000000	400000.000000	500000.000000	600000.000000	700000.000000	800000.000000	900000.000000	1000000.000000	1100000.000000	1200000.000000	1300000.000000	1400000.000000	1500000.000000	1600000.000000	1700000.000000	1800000.000000	1900000.000000	2000000.000000	2100000.000000	2200000.000000	2300000.000000	2400000.000000	2500000.000000	2600000.000000	2700000.000000	2800000.000000	2900000.000000	3000000.000000	3100000.000000	3200000.000000	3300000.000000	3400000.000000	3500000.000000	3600000.000000	3700000.000000	3800000.000000	3900000.000000	4000000.000000
-180.000000	0.006000	0.006000	0.006000	0.006000	0.006000	0.006000	0.006000	0.006000	0.006000	0.006000	0.006000	0.006000	0.006000	0.006000	0.006000	0.006000	0.006000	0.006000	0.006000	0.006000	0.006000	0.006000	0.006000	0.006000	0.006000	0.006000	0.006000	0.006000	0.006000	0.006000	0.006000	0.006000	0.006000	0.006000	0.006000	0.006000	0.006000	0.006000	0.006000
-179.000000	0.006500	0.006500	0.006500	0.006500	0.006500	0.006500	0.006500	0.006500	0.006500	0.006500	0.006500	0.006500	0.006500	0.006500	0.006500	0.006500	0.006500	0.006500	0.006500	0.006500	0.006500	0.006500	0.006500	0.006500	0.006500	0.006500	0.006500	0.006500	0.006500	0.006500	0.006500	0.006500	0.006500	0.006500	0.006500	0.006500	0.006500	0.006500	0.006500
-178.000000	0.007900	0.007900	0.007900	0.007900	0.007900	0.007900	0.007900	0.007900	0.007900	0.007900	0.007900	0.007900	0.007900	0.007900	0.007900	0.007900	0.007900	0.007900	0.007900	0.007900	0.007900	0.007900	0.007900	0.007900	0.007900	0.007900	0.007900	0.007900	0.007900	0.007900	0.007900	0.007900	0.007900	0.007900	0.007900	0.007900	0.007900	0.007900	0.007900
-177.000000	0.010400	0.010400	0.010400	0.010400	0.010400	0.010400	0.010400	0.010400	0.010400	0.010400	0.010400	0.010400	0.010400	0.010400	0.010400	0.010400	0.010400	0.010400	0.010400	0.010400	0.010400	0.010400	0.010400	0.010400	0.010400	0.010400	0.010400	0.010400	0.010400	0.010400	0.010400	0.010400	0.010400	0.010400	0.010400	0.010400	0.010400	0.010400	0.010400
-176.000000	0.013800	0.013800	0.013800	0.013800	0.013800	0.013800	0.013800	0.013800	0.013800	0.013800	0.013800	0.013800	0.013800	0.013800	0.013800	0.013800	0.013800	0.013800	0.013800	0.013800	0.013800	0.013800	0.013800	0.013800	0.013800	0.013800	0.013800	0.013800	0.013800	0.013800	0.013800	0.013800	0.013800	0.013800	0.013800	0.013800	0.013800	0.013800	0.013800
-175.000000	0.018100	0.018100	0.018100	0.018100	0.018100	0.018100	0.018100	0.018100	0.018100	0.018100	0.018100	0.018100	0.018100	0.018100	0.018100	0.018100	0.018100	0.018100	0.018100	0.018100	0.018100	0.018100	0.018100	0.018100	0.018100	0.018100	0.018100	0.018100	0.018100	0.018100	0.018100	0.018100	0.018100	0.018100	0.018100	0.018100	0.018100	0.018100	0.018100
-174.000000	0.023400	0.023400	0.023400	0.023400	0.023400	0.023400	0.023400	0.023400	0.023400	0.023400	0.023400	0.023400	0.023400	0.023400	0.023400	0.023400	0.023400	0.023400	0.023400	0.023400	0.023400	0.023400	0.023400	0.023400	0.023400	0.023400	0.023400	0.023400	0.023400	0.023400	0.023400	0.023400	0.023400	0.023400	0.023400	0.023400	0.023400	0.023400	0.023400
-173.000000	0.029700	0.029700	0.029700	0.029700	0.029700	0.029700	0.029700	0.029700	0.029700	0.029700	0.029700	0.029700	0.029700	0.029700	0.029700	0.029700	0.029700	0.029700	0.029700	0.029700	0.029700	0.029700	0.029700	0.029700	0.029700	0.029700	0.029700	0.029700	0.029700	0.029700	0.029700	0.029700	0.029700	0.029700	0.029700	0.029700	0.029700	0.029700	0.029700
-172.000000	0.036900	0.036900	0.036900	0.036900	0.036900	0.036900	0.036900	0.036900	0.036900	0.036900	0.036900	0.036900	0.036900	0.036900	0.036900	0.036900	0.036900	0.036900	0.036900	0.036900	0.036900	0.036900	0.036900	0.036900	0.036900	0.036900	0.036900	0.036900	0.036900	0.036900	0.036900	0.036900	0.036900	0.036900	0.036900	0.036900	0.036900	0.036900	0.036900
-171.000000	0.045000	0.045000	0.045000	0.045000	0.045000	0.045000	0.045000	0.045000	0.045000	0.045000	0.045000	0.045000	0.045000	0.045000	0.045000	0.045000	0.045000	0.045000	0.045000	0.045000	0.045000	0.045000	0.045000	0.045000	0.045000	0.045000	0.045000	0.045000	0.045000	0.045000	0.045000	0.045000	0.045000	0.045000	0.045000	0.045000	0.045000	0.045000	0.045000
-170.000000	0.054100	0.054100	0.054100	0.054100	0.054100	0.054100	0.054100	0.054100	0.054100	0.054100	0.054100	0.054100	0.054100	0.054100	0.054100	0.054100	0.054100	0.054100	0.054100	0.054100	0.054100	0.054100	0.054100	0.054100	0.054100	0.054100	0.054100	0.054100	0.054100	0.054100	0.054100	0.054100	0.054100	0.054100	0.054100	0.054100	0.054100	0.054100	0.054100
-169.000000	0.064100	0.064100	0.064100	0.064100	0.064100	0.064100	0.064100	0.064100	0.064100	0.064100	0.064100	0.064100	0.064100	0.064100	0.064100	0.064100	0.064100	0.064100	0.064100	0.064100	0.064100	0.064100	0.064100	0.064100	0.064100	0.064100	0.064100	0.064100	0.064100	0.064100	0.064100	0.064100	0.064100	0.064100	0.064100	0.064100	0.064100	0.064100	0.064100
-168.000000	0.075000	0.075000	0.075000	0.075000	0.075000	0.075000	0.075000	0.075000	0.075000	0.075000	0.075000	0.075000	0.075000	0.075000	0.075000	0.075000	0.075000	0.075000	0.075000	0.075000	0.075000	0.075000	0.075000	0.075000	0.075000	0.075000	0.075000	0.075000	0.075000	0.075000	0.075000	0.075000	0.075000	0.075000	0.075000	0.075000	0.075000	0.075000	0.075000
-167.000000	0.086700	0.086700	0.086700	0.086700	0.086700	0.086700	0.086700	0.086700	0.086700	0.086700	0.086700	0.086700	0.086700	0.086700	0.086700	0.086700	0.086700	0.086700	0.086700	0.086700	0.086700	0.086700	0.086700	0.086700	0.086700	0.086700	0.086700	0.086700	0.086700	0.086700	0.086700	0.086700	0.086700	0.086700	0.086700	0.086700	0.086700	0.086700	0.086700
-166.000000	0.099400	0.099400	0.099400	0.099400	0.099400	0.099400	0.099400	0.099400	0.099400	0.099400	0.099400	0.099400	0.099400	0.099400	0.099400	0.099400	0.099400	0.099400	0.099400	0.099400	0.099400	0.099400	0.099400	0.099400	0.099400	0.099400	0.099400	0.099400	0.099400	0.099400	0.099400	0.099400	0.099400	0.099400	0.099400	0.099400	0.099400	0.099400	0.099400
-165.000000	0.112900	0.112900	0.112900	0.112900	0.112900	0.112900	0.112900	0.112900	0.112900	0.112900	0.112900	0.112900	0.112900	0.112900	0.112900	0.112900	0.112900	0.112900	0.112900	0.112900	0.112900	0.112900	0.112900	0.112900	0.112900	0.112900	0.112900	0.112900	0.112900	0.112900	0.112900	0.112900	0.112900	0.112900	0.112900	0.112900	0.112900	0.112900	0.112900
-164.000000	0.127200	0.127200	0.127200	0.127200	0.127200	0.127200	0.127200	0.127200	0.127200	0.127200	0.127200	0.127200	0.127200	0.127200	0.127200	0.127200	0.127200	0.127200	0.127200	0.127200	0.127200	0.127200	0.127200	0.127200	0.127200	0.127200	0.127200	0.127200	0.127200	0.127200	0.127200	0.127200	0.127200	0.127200	0.127200	0.127200	0.127200	0.127200	0.127200
-163.000000	0.142400	0.142400	0.142400	0.142400	0.142400	0.142400	0.142400	0.142400	0.142400	0.142400	0.142400	0.142400	0.142400	0.142400	0.142400	0.142400	0.142400	0.142400	0.142400	0.142400	0.142400	0.142400	0.142400	0.142400	0.142400	0.142400	0.142400	0.142400	0.142400	0.142400	0.142400	0.142400	0.142400	0.142400	0.142400	0.142400	0.142400	0.142400	0.142400
-162.000000	0.158400	0.158400	0.158400	0.158400	0.158400	0.158400	0.158400	0.158400	0.158400	0.158400	0.158400	0.158400	0.158400	0.158400	0.158400	0.158400	0.158400	0.158400	0.158400	0.158400	0.158400	0.158400	0.158400	0.158400	0.158400	0.158400	0.158400	0.158400	0.158400	0.158400	0.158400	0.158400	0.158400	0.158400	0.158400	0.158400	0.158400	0.158400	0.158400
-161.000000	0.175100	0.175100	0.175100	0.175100	0.175100	0.175100	0.175100	0.175100	0.175100	0.175100	0.175100	0.175100	0.175100	0.175100	0.175100	0.175100	0.175100	0.175100	0.175100	0.175100	0.175100	0.175100	0.175100	0.175100	0.175100	0.175100	0.175100	0.175100	0.175100	0.175100	0.175100	0.175100	0.175100	0.175100	0.175100	0.175100	0.175100	0.175100	0.175100
-160.000000	0.192700	0.192700	0.192700	0.192700	0.192700	0.192700	0.192700	0.192700	0.192700	0.192700	0.192700	0.192700	0.192700	0.192700	0.192700	0.192700	0.192700	0.192700	0.192700	0.192700	0.192700	0.192700	0.192700	0.192700	0.192700	0.192700	0.192700	0.192700	0.192700	0.192700	0.192700	0.192700	0.192700	0.192700	0.192700	0.192700	0.192700	0.192700	0.192700
-159.000000	0.210900	0.210900	0.210900	0.210900	0.210900	0.210900	0.210900	0.210900	0.210900	0.210900	0.210900	0.210900	0.210900	0.210900	0.210900	0.210900	0.210900	0.210900	0.210900	0.210900	0.210900	0.210900	0.210900	0.210900	0.210900	0.210900	0.210900	0.210900	0.210900	0.210900	0.210900	0.210900	0.210900	0.210900	0.210900	0.210900	0.210900	0.210900	0.210900
-158.000000	0.229900	0.229900	0.229900	0.229900	0.229900	0.229900	0.229900	0.229900	0.229900	0.229900	0.229900	0.229900	0.229900	0.229900	0.229900	0.229900	0.229900	0.229900	0.229900	0.229900	0.229900	0.229900	0.229900	0.229900	0.229900	0.229900	0.229900	0.229900	0.229900	0.229900	0.229900	0.229900	0.229900	0.229900	0.229900	0.229900	0.229900	0.229900	0.229900
-157.000000	0.249600	0.249600	0.249600	0.249600	0.249600	0.249600	0.249600	0.249600	0.249600	0.249600	0.249600	0.249600	0.249600	0.249600	0.249600	0.249600	0.249600	0.249600	0.249600	0.249600	0.249600	0.249600	0.249600	0.249600	0.249600	0.249600	0.249600	0.249600	0.249600	0.249600	0.249600	0.249600	0.249600	0.249600	0.249600	0.249600	0.249600	0.249600	0.249600
-156.000000	0.270000	0.270000	0.270000	0.270000	0.270000	0.270000	0.270000	0.270000	0.270000	0.270000	0.270000	0.270000	0.270000	0.270000	0.270000	0.270000	0.270000	0.270000	0.270000	0.270000	0.270000	0.270000	0.270000	0.270000	0.270000	0.270000	0.270000	0.270000	0.270000	0.270000	0.270000	0.270000	0.270000	0.270000	0.270000	0.270000	0.270000	0.270000	0.270000
-155.000000	0.291000	0.291000	0.291000	0.291000	0.291000	0.291000	0.291000	0.291000	0.291000	0.291000	0.291000	0.291000	0.291000	0.291000	0.291000	0.291000	0.291000	0.291000	0.291000	0.291000	0.291000	0.291000	0.291000	0.291000	0.291000	0.291000	0.291000	0.291000	0.291000	0.291000	0.291000	0.291000	0.291000	0.291000	0.291000	0.291000	0.291000	0.291000	0.291000
-154.000000	0.312600	0.312600	0.312600	0.312600	0.312600	0.312600	0.312600	0.312600	0.312600	0.312600	0.312600	0.312600	0.312600	0.312600	0.312600	0.312600	0.312600	0.312600	0.312600	0.312600	0.312600	0.312600	0.312600	0.312600	0.312600	0.312600	0.312600	0.312600	0.312600	0.312600	0.312600	0.312600	0.312600	0.312600	0.312600	0.312600	0.312600	0.312600	0.312600
-153.000000	0.334900	0.334900	0.334900	0.334900	0.334900	0.334900	0.334900	0.334900	0.334900	0.334900	0.334900	0.334900	0.334900	0.334900	0.334900	0.334900	0.334900	0.334900	0.334900	0.334900	0.334900	0.334900	0.334900	0.334900	0.334900	0.334900	0.334900	0.334900	0.334900	0.334900	0.334900	0.334900	0.334900	0.334900	0.334900	0.334900	0.334900	0.334900	0.334900
-152.000000	0.357700	0.357700	0.357700	0.357700	0.357700	0.357700	0.357700	0.357700	0.357700	0.357700	0.357700	0.357700	0.357700	0.357700	0.357700	0.357700	0.357700	0.357700	0.357700	0.357700	0.357700	0.357700	0.357700	0.357700	0.357700	0.357700	0.357700	0.357700	0.357700	0.357700	0.357700	0.357700	0.357700	0.357700	0.357700	0.357700	0.357700	0.357700	0.357700
-151.000000	0.381000	0.381000	0.381000	0.381000	0.381000	0.381000	0.381000	0.381000	0.381000	0.381000	0.381000	0.381000	0.381000	0.381000	0.381000	0.381000	0.381000	0.381000	0.381000	0.381000	0.381000	0.381000	0.381000	0.381000	0.381000	0.381000	0.381000	0.381000	0.381000	0.381000	0.381000	0.381000	0.381000	0.381000	0.381000	0.381000	0.381000	0.381000	0.381000
-150.000000	0.404900	0.404900	0.404900	0.404900	0.404900	0.404900	0.404900	0.404900	0.404900	0.404900	0.404900	0.404900	0.404900	0.404900	0.404900	0.404900	0.404900	0.404900	0.404900	0.404900	0.404900	0.404900	0.404900	0.404900	0.404900	0.404900	0.404900	0.404900	0.404900	0.404900	0.404900	0.404900	0.404900	0.404900	0.404900	0.404900	0.404900	0.404900	0.404900
-149.000000	0.429300	0.429300	0.429300	0.429300	0.429300	0.429300	0.429300	0.429300	0.429300	0.429300	0.429300	0.429300	0.429300	0.429300	0.429300	0.429300	0.429300	0.429300	0.429300	0.429300	0.429300	0.429300	0.429300	0.429300	0.429300	0.429300	0.429300	0.429300	0.429300	0.429300	0.429300	0.429300	0.429300	0.429300	0.429300	0.429300	0.429300	0.429300	0.429300
-148.000000	0.454100	0.454100	0.454100	0.454100	0.454100	0.454100	0.454100	0.454100	0.454100	0.454100	0.454100	0.454100	0.454100	0.454100	0.454100	0.454100	0.454100	0.454100	0.454100	0.454100	0.454100	0.454100	0.454100	0.454100	0.454100	0.454100	0.454100	0.454100	0.454100	0.454100	0.454100	0.454100	0.454100	0.454100	0.454100	0.454100	0.454100	0.454100	0.454100
-147.000000	0.479300	0.479300	0.479300	0.479300	0.479300	0.479300	0.479300	0.479300	0.479300	0.479300	0.479300	0.479300	0.479300	0.479300	0.479300	0.479300	0.479300	0.479300	0.479300	0.479300	0.479300	0.479300	0.479300	0.479300	0.479300	0.479300	0.479300	0.479300	0.479300	0.479300	0.479300	0.479300	0.479300	0.479300	0.479300	0.479300	0.479300	0.479300	0.479300
-146.000000	0.504900	0.504900	0.504900	0.504900	0.504900	0.504900	0.504900	0.504900	0.504900	0.504900	0.504900	0.504900	0.504900	0.504900	0.504900	0.504900	0.504900	0.504900	0.504900	0.504900	0.504900	0.504900	0.504900	0.504900	0.504900	0.504900	0.504900	0.504900	0.504900	0.504900	0.504900	0.504900	0.504900	0.504900	0.504900	0.504900	0.504900	0.504900	0.504900
-145.000000	0.530900	0.530900	0.530900	0.530900	0.530900	0.530900	0.530900	0.530900	0.530900	0.530900	0.530900	0.530900	0.530900	0.530900	0.530900	0.530900	0.530900	0.530900	0.530900	0.530900	0.530900	0.530900	0.530900	0.530900	0.530900	0.530900	0.530900	0.530900	0.530900	0.530900	0.530900	0.530900	0.530900	0.530900	0.530900	0.530900	0.530900	0.530900	0.530900
-144.000000	0.557300	0.557300	0.557300	0.557300	0.557300	0.557300	0.557300	0.557300	0.557300	0.557300	0.557300	0.557300	0.557300	0.557300	0.557300	0.557300	0.557300	0.557300	0.557300	0.557300	0.557300	0.557300	0.557300	0.557300	0.557300	0.557300	0.557300	0.557300	0.557300	0.557300	0.557300	0.557300	0.557300	0.557300	0.557300	0.557300	0.557300	0.557300	0.557300
-143.000000	0.583900	0.583900	0.583900	0.583900	0.583900	0.583900	0.583900	0.583900	0.583900	0.583900	0.583900	0.583900	0.583900	0.583900	0.583900	0.583900	0.583900	0.583900	0.583900	0.583900	0.583900	0.583900	0.583900	0.583900	0.583900	0.583900	0.583900	0.583900	0.583900	0.583900	0.583900	0.583900	0.583900	0.583900	0.583900	0.583900	0.583900	0.583900	0.583900
-142.000000	0.610800	0.610800	0.610800	0.610800	0.610800	0.610800	0.610800	0.610800	0.610800	0.610800	0.610800	0.610800	0.610800	0.610800	0.610800	0.610800	0.610800	0.610800	0.610800	0.610800	0.610800	0.610800	0.610800	0.610800	0.610800	0.610800	0.610800	0.610800	0.610800	0.610800	0.610800	0.610800	0.610800	0.610800	0.610800	0.610800	0.610800	0.610800	0.610800
-141.000000	0.637900	0.637900	0.637900	0.637900	0.637900	0.637900	0.637900	0.637900	0.637900	0.637900	0.637900	0.637900	0.637900	0.637900	0.637900	0.637900	0.637900	0.637900	0.637900	0.637900	0.637900	0.637900	0.637900	0.637900	0.637900	0.637900	0.637900	0.637900	0.637900	0.637900	0.637900	0.637900	0.637900	0.637900	0.637900	0.637900	0.637900	0.637900	0.637900
-140.000000	0.665300	0.665300	0.665300	0.665300	0.665300	0.665300	0.665300	0.665300	0.665300	0.665300	0.665300	0.665300	0.665300	0.665300	0.665300	0.665300	0.665300	0.665300	0.665300	0.665300	0.665300	0.665300	0.665300	0.665300	0.665300	0.665300	0.665300	0.665300	0.665300	0.665300	0.665300	0.665300	0.665300	0.665300	0.665300	0.665300	0.665300	0.665300	0.665300
-139.000000	0.692800	0.692800	0.692800	0.692800	0.692800	0.692800	0.692800	0.692800	0.692800	0.692800	0.692800	0.692800	0.692800	0.692800	0.692800	0.692800	0.692800	0.692800	0.692800	0.692800	0.692800	0.692800	0.692800	0.692800	0.692800	0.692800	0.692800	0.692800	0.692800	0.692800	0.692800	0.692800	0.692800	0.692800	0.692800	0.692800	0.692800	0.692800	0.692800
-138.000000	0.720400	0.720400	0.720400	0.720400	0.720400	0.720400	0.720400	0.720400	0.720400	0.720400	0.720400	0.720400	0.720400	0.720400	0.720400	0.720400	0.720400	0.720400	0.720400	0.720400	0.720400	0.720400	0.720400	0.720400	0.720400	0.720400	0.720400	0.720400	0.720400	0.720400	0.720400	0.720400	0.720400	0.720400	0.720400	0.720400	0.720400	0.720400	0.720400
-137.000000	0.748100	0.748100	0.748100	0.748100	0.748100	0.748100	0.748100	0.748100	0.748100	0.748100	0.748100	0.748100	0.748100	0.748100	0.748100	0.748100	0.748100	0.748100	0.748100	0.748100	0.748100	0.748100	0.748100	0.748100	0.748100	0.748100	0.748100	0.748100	0.748100	0.748100	0.748100	0.748100	0.748100	0.748100	0.748100	0.748100	0.748100	0.748100	0.748100
-136.000000	0.775900	0.776000	0.776000	0.776000	0.776000	0.776000	0.776000	0.776000	0.776000	0.776000	0.776000	0.776000	0.776000	0.776000	0.776000	0.776000	0.776000	0.776000	0.776000	0.776000	0.776000	0.776000	0.776000	0.776000	0.776000	0.776000	0.776000	0.776000	0.776000	0.776000	0.776000	0.776000	0.776000	0.776000	0.776000	0.776000	0.776000	0.776000	0.776000
-135.000000	0.803800	0.803800	0.803800	0.803800	0.803800	0.803800	0.803800	0.803800	0.803800	0.803800	0.803800	0.803800	0.803800	0.803800	0.803800	0.803800	0.803800	0.803800	0.803800	0.803800	0.803800	0.803800	0.803800	0.803800	0.803800	0.803800	0.803800	0.803800	0.803800	0.803800	0.803800	0.803800	0.803800	0.803800	0.803800	0.803800	0.803800	0.803800	0.803800
-134.000000	0.831600	0.831600	0.831600	0.831600	0.831600	0.831600	0.831600	0.831600	0.831600	0.831600	0.831600	0.831600	0.831600	0.831600	0.831600	0.831600	0.831600	0.831600	0.831600	0.831600	0.831600	0.831600	0.831600	0.831600	0.831600	0.831600	0.831600	0.831600	0.831600	0.831600	0.831600	0.831600	0.831600	0.831600	0.831600	0.831600	0.831600	0.831600	0.831600
-133.000000	0.859400	0.859400	0.859400	0.859400	0.859400	0.859400	0.859400	0.859400	0.859400	0.859400	0.859400	0.859400	0.859400	0.859400	0.859400	0.859400	0.859400	0.859400	0.859400	0.859400	0.859400	0.859400	0.859400	0.859400	0.859500	0.859500	0.859500	0.859500	0.859500	0.859500	0.859500	0.859500	0.859500	0.859500	0.859500	0.859500	0.859500	0.859500	0.859500
-132.000000	0.887200	0.887200	0.887200	0.887200	0.887200	0.887200	0.887200	0.887200	0.887200	0.887200	0.887200	0.887200	0.887200	0.887200	0.887200	0.887200	0.887200	0.887200	0.887200	0.887200	0.887200	0.887200	0.887200	0.887200	0.887200	0.887200	0.887200	0.887200	0.887200	0.887200	0.887200	0.887200	0.887200	0.887200	0.887200	0.887200	0.887200	0.887200	0.887200
-131.000000	0.914800	0.914800	0.914800	0.914800	0.914800	0.914800	0.914800	0.914800	0.914800	0.914800	0.914800	0.914800	0.914800	0.914800	0.914800	0.914800	0.914800	0.914800	0.914800	0.914800	0.914800	0.914800	0.914800	0.914800	0.914800	0.914800	0.914800	0.914800	0.914800	0.914800	0.914800	0.914800	0.914800	0.914800	0.914800	0.914800	0.914800	0.914800	0.914800
-130.000000	0.942300	0.942300	0.942300	0.942300	0.942300	0.942300	0.942300	0.942300	0.942300	0.942300	0.942300	0.942300	0.942300	0.942300	0.942300	0.942300	0.942300	0.942300	0.942300	0.942300	0.942300	0.942300	0.942300	0.942300	0.942300	0.942300	0.942300	0.942300	0.942300	0.942300	0.942300	0.942300	0.942300	0.942300	0.942300	0.942300	0.942300	0.942300	0.942300
-129.000000	0.969700	0.969700	0.969700	0.969700	0.969700	0.969700	0.969700	0.969700	0.969700	0.969700	0.969700	0.969700	0.969700	0.969700	0.969700	0.969700	0.969700	0.969700	0.969700	0.969700	0.969700	0.969700	0.969700	0.969700	0.969700	0.969700	0.969700	0.969700	0.969700	0.969700	0.969700	0.969700	0.969700	0.969700	0.969700	0.969700	0.969700	0.969700	0.969700
-128.000000	0.996800	0.996800	0.996800	0.996800	0.996800	0.996800	0.996800	0.996800	0.996800	0.996800	0.996800	0.996800	0.996800	0.996800	0.996800	0.996800	0.996800	0.996800	0.996800	0.996800	0.996800	0.996800	0.996800	0.996800	0.996800	0.996800	0.996800	0.996800	0.996800	0.996800	0.996800	0.996800	0.996800	0.996800	0.996800	0.996800	0.996800	0.996800	0.996800
-127.000000	1.023700	1.023700	1.023700	1.023700	1.023700	1.023700	1.023700	1.023700	1.023700	1.023700	1.023700	1.023700	1.023700	1.023700	1.023700	1.023700	1.023700	1.023700	1.023700	1.023700	1.023700	1.023700	1.023700	1.023700	1.023700	1.023700	1.023700	1.023700	1.023700	1.023700	1.023700	1.023700	1.023700	1.023700	1.023700	1.023700	1.023700	1.023700	1.023700
-126.000000	1.050300	1.050300	1.050300	1.050300	1.050300	1.050300	1.050300	1.050300	1.050300	1.050300	1.050300	1.050300	1.050300	1.050300	1.050300	1.050300	1.050300	1.050300	1.050300	1.050300	1.050300	1.050300	1.050300	1.050300	1.050300	1.050300	1.050300	1.050300	1.050300	1.050300	1.050300	1.050300	1.050300	1.050300	1.050300	1.050300	1.050300	1.050300	1.050300
-125.000000	1.076600	1.076600	1.076600	1.076700	1.076700	1.076700	1.076700	1.076700	1.076700	1.076700	1.076700	1.076700	1.076700	1.076700	1.076700	1.076700	1.076700	1.076700	1.076700	1.076700	1.076700	1.076700	1.076700	1.076700	1.076700	1.076700	1.076700	1.076700	1.076700	1.076700	1.076700	1.076700	1.076700	1.076700	1.076700	1.076700	1.076700	1.076700	1.076700
-124.000000	1.102600	1.102600	1.102600	1.102600	1.102600	1.102700	1.102700	1.102600	1.102600	1.102600	1.102600	1.102700	1.102700	1.102700	1.102700	1.102700	1.102700	1.102700	1.102700	1.102700	1.102700	1.102700	1.102700	1.102700	1.102700	1.102700	1.102700	1.102700	1.102700	1.102700	1.102700	1.102700	1.102700	1.102700	1.102700	1.102700	1.102700	1.102700	1.102700
-123.000000	1.128300	1.128300	1.128300	1.128300	1.128300	1.128300	1.128300	1.128300	1.128300	1.128300	1.128300	1.128300	1.128300	1.128300	1.128300	1.128300	1.128300	1.128300	1.128300	1.128300	1.128300	1.128300	1.128300	1.128300	1.128300	1.128300	1.128300	1.128300	1.128300	1.128300	1.128300	1.128300	1.128300	1.128300	1.128300	1.128300	1.128300	1.128300	1.128300
-122.000000	1.153500	1.153500	1.153500	1.153500	1.153500	1.153500	1.153500	1.153500	1.153500	1.153500	1.153500	1.153500	1.153500	1.153500	1.153500	1.153500	1.153500	1.153500	1.153500	1.153500	1.153500	1.153500	1.153500	1.153500	1.153500	1.153500	1.153500	1.153500	1.153500	1.153500	1.153500	1.153500	1.153500	1.153500	1.153500	1.153500	1.153500	1.153500	1.153500
-121.000000	1.178300	1.178300	1.178300	1.178300	1.178300	1.178300	1.178300	1.178300	1.178300	1.178300	1.178300	1.178300	1.178300	1.178300	1.178300	1.178300	1.178300	1.178300	1.178300	1.178300	1.178300	1.178300	1.178300	1.178300	1.178300	1.178300	1.178300	1.178300	1.178300	1.178300	1.178300	1.178300	1.178300	1.178300	1.178300	1.178300	1.178300	1.178300	1.178300
-120.000000	1.202700	1.202700	1.202700	1.202700	1.202700	1.202700	1.202700	1.202700	1.202700	1.202700	1.202700	1.202700	1.202700	1.202700	1.202700	1.202700	1.202700	1.202700	1.202700	1.202700	1.202700	1.202700	1.202700	1.202700	1.202700	1.202700	1.202700	1.202700	1.202700	1.202700	1.202700	1.202700	1.202700	1.202700	1.202700	1.202700	1.202700	1.202700	1.202700
-119.000000	1.226500	1.226500	1.226500	1.226500	1.226600	1.226600	1.226600	1.226500	1.226500	1.226600	1.226600	1.226600	1.226600	1.226600	1.226600	1.226600	1.226600	1.226600	1.226600	1.226600	1.226600	1.226600	1.226600	1.226600	1.226600	1.226600	1.226600	1.226600	1.226600	1.226600	1.226600	1.226600	1.226600	1.226600	1.226600	1.226600	1.226600	1.226600	1.226600
-118.000000	1.249900	1.249900	1.249900	1.249900	1.249900	1.249900	1.249900	1.249900	1.249900	1.249900	1.249900	1.249900	1.249900	1.249900	1.249900	1.249900	1.249900	1.249900	1.249900	1.249900	1.249900	1.249900	1.249900	1.249900	1.249900	1.249900	1.249900	1.249900	1.249900	1.249900	1.249900	1.249900	1.249900	1.249900	1.249900	1.249900	1.249900	1.249900	1.249900
-117.000000	1.272700	1.272700	1.272700	1.272700	1.272700	1.272700	1.272700	1.272700	1.272700	1.272700	1.272700	1.272700	1.272700	1.272700	1.272700	1.272700	1.272700	1.272700	1.272700	1.272700	1.272700	1.272700	1.272700	1.272700	1.272700	1.272700	1.272700	1.272700	1.272700	1.272700	1.272700	1.272700	1.272700	1.272700	1.272700	1.272700	1.272700	1.272700	1.272700
-116.000000	1.294900	1.294900	1.294900	1.294900	1.295000	1.295000	1.295000	1.294900	1.294900	1.295000	1.295000	1.295000	1.295000	1.295000	1.295000	1.295000	1.295000	1.295000	1.295000	1.295000	1.295000	1.295000	1.295000	1.295000	1.295000	1.295000	1.295000	1.295000	1.295000	1.295000	1.295000	1.295000	1.295000	1.295000	1.295000	1.295000	1.295000	1.295000	1.295000
-115.000000	1.316600	1.316600	1.316600	1.316600	1.316600	1.316600	1.316600	1.316600	1.316600	1.316600	1.316600	1.316600	1.316600	1.316600	1.316600	1.316600	1.316600	1.316600	1.316600	1.316600	1.316600	1.316600	1.316600	1.316600	1.316600	1.316600	1.316600	1.316600	1.316600	1.316600	1.316600	1.316600	1.316600	1.316600	1.316600	1.316600	1.316600	1.316600	1.316600
-114.000000	1.337600	1.337600	1.337600	1.337600	1.337600	1.337600	1.337600	1.337600	1.337600	1.337600	1.337600	1.337600	1.337600	1.337600	1.337600	1.337600	1.337600	1.337600	1.337600	1.337600	1.337600	1.337600	1.337600	1.337600	1.337600	1.337600	1.337600	1.337600	1.337600	1.337600	1.337600	1.337600	1.337600	1.337600	1.337600	1.337600	1.337600	1.337600	1.337600
-113.000000	1.357900	1.358000	1.358000	1.358000	1.358000	1.358000	1.358000	1.358000	1.358000	1.358000	1.358000	1.358000	1.358000	1.358000	1.358000	1.358000	1.358000	1.358000	1.358000	1.358000	1.358000	1.358000	1.358000	1.358000	1.358000	1.358000	1.358000	1.358000	1.358000	1.358000	1.358000	1.358000	1.358000	1.358000	1.358000	1.358000	1.358000	1.358000	1.358000
-112.000000	1.377600	1.377600	1.377700	1.377700	1.377700	1.377700	1.377700	1.377700	1.377700	1.377700	1.377700	1.377700	1.377700	1.377700	1.377700	1.377700	1.377700	1.377700	1.377700	1.377700	1.377700	1.377700	1.377700	1.377700	1.377700	1.377700	1.377700	1.377700	1.377700	1.377700	1.377700	1.377700	1.377700	1.377700	1.377700	1.377700	1.377700	1.377700	1.377700
-111.000000	1.396600	1.396600	1.396600	1.396600	1.396600	1.396700	1.396700	1.396600	1.396600	1.396600	1.396600	1.396700	1.396700	1.396700	1.396700	1.396700	1.396700	1.396700	1.396700	1.396700	1.396700	1.396700	1.396700	1.396700	1.396700	1.396700	1.396700	1.396700	1.396700	1.396700	1.396700	1.396700	1.396700	1.396700	1.396700	1.396700	1.396700	1.396700	1.396700
-110.000000	1.414900	1.414900	1.414900	1.414900	1.414900	1.414900	1.414900	1.414900	1.414900	1.414900	1.414900	1.414900	1.414900	1.414900	1.414900	1.414900	1.414900	1.414900	1.414900	1.414900	1.414900	1.414900	1.414900	1.414900	1.414900	1.414900	1.414900	1.414900	1.414900	1.414900	1.414900	1.414900	1.414900	1.414900	1.414900	1.414900	1.414900	1.414900	1.414900
-109.000000	1.432400	1.432400	1.432400	1.432400	1.432400	1.432400	1.432400	1.432400	1.432400	1.432400	1.432400	1.432400	1.432400	1.432400	1.432400	1.432400	1.432400	1.432400	1.432400	1.432400	1.432400	1.432400	1.432400	1.432400	1.432500	1.432500	1.432500	1.432500	1.432500	1.432500	1.432500	1.432500	1.432500	1.432500	1.432500	1.432500	1.432500	1.432500	1.432500
-108.000000	1.449200	1.449200	1.449200	1.449200	1.449200	1.449200	1.449200	1.449200	1.449200	1.449200	1.449200	1.449200	1.449200	1.449200	1.449200	1.449200	1.449200	1.449200	1.449200	1.449200	1.449200	1.449200	1.449200	1.449200	1.449200	1.449200	1.449200	1.449200	1.449200	1.449200	1.449200	1.449200	1.449200	1.449200	1.449200	1.449200	1.449200	1.449200	1.449200
-107.000000	1.465100	1.465100	1.465200	1.465200	1.465200	1.465200	1.465200	1.465200	1.465200	1.465200	1.465200	1.465200	1.465200	1.465200	1.465200	1.465200	1.465200	1.465200	1.465200	1.465200	1.465200	1.465200	1.465200	1.465200	1.465200	1.465200	1.465200	1.465200	1.465200	1.465200	1.465200	1.465200	1.465200	1.465200	1.465200	1.465200	1.465200	1.465200	1.465200
-106.000000	1.480300	1.480300	1.480300	1.480300	1.480300	1.480300	1.480300	1.480300	1.480300	1.480300	1.480300	1.480300	1.480300	1.480300	1.480300	1.480300	1.480300	1.480300	1.480300	1.480300	1.480300	1.480300	1.480300	1.480300	1.480300	1.480300	1.480300	1.480300	1.480300	1.480300	1.480300	1.480300	1.480300	1.480300	1.480300	1.480300	1.480300	1.480300	1.480300
-105.000000	1.494600	1.494600	1.494700	1.494700	1.494700	1.494700	1.494700	1.494700	1.494700	1.494700	1.494700	1.494700	1.494700	1.494700	1.494700	1.494700	1.494700	1.494700	1.494700	1.494700	1.494700	1.494700	1.494700	1.494700	1.494700	1.494700	1.494700	1.494700	1.494700	1.494700	1.494700	1.494700	1.494700	1.494700	1.494700	1.494700	1.494700	1.494700	1.494700
-104.000000	1.508100	1.508100	1.508200	1.508200	1.508200	1.508200	1.508200	1.508200	1.508200	1.508200	1.508200	1.508200	1.508200	1.508200	1.508200	1.508200	1.508200	1.508200	1.508200	1.508200	1.508200	1.508200	1.508200	1.508200	1.508200	1.508200	1.508200	1.508200	1.508200	1.508200	1.508200	1.508200	1.508200	1.508200	1.508200	1.508200	1.508200	1.508200	1.508200
-103.000000	1.520800	1.520800	1.520800	1.520800	1.520800	1.520800	1.520800	1.520800	1.520800	1.520800	1.520800	1.520800	1.520800	1.520800	1.520800	1.520800	1.520800	1.520800	1.520800	1.520800	1.520800	1.520800	1.520800	1.520800	1.520800	1.520800	1.520800	1.520800	1.520800	1.520800	1.520800	1.520800	1.520800	1.520800	1.520800	1.520800	1.520800	1.520800	1.520800
-102.000000	1.532500	1.532500	1.532600	1.532600	1.532600	1.532600	1.532600	1.532600	1.532600	1.532600	1.532600	1.532600	1.532600	1.532600	1.532600	1.532600	1.532600	1.532600	1.532600	1.532600	1.532600	1.532600	1.532600	1.532600	1.532600	1.532600	1.532600	1.532600	1.532600	1.532600	1.532600	1.532600	1.532600	1.532600	1.532600	1.532600	1.532600	1.532600	1.532600
-101.000000	1.543400	1.543400	1.543400	1.543400	1.543400	1.543500	1.543500	1.543400	1.543400	1.543400	1.543400	1.543400	1.543500	1.543500	1.543500	1.543500	1.543500	1.543500	1.543500	1.543500	1.543500	1.543500	1.543500	1.543500	1.543500	1.543500	1.543500	1.543500	1.543500	1.543500	1.543500	1.543500	1.543500	1.543500	1.543500	1.543500	1.543500	1.543500	1.543500
-100.000000	1.553400	1.553400	1.553400	1.553400	1.553400	1.553400	1.553400	1.553400	1.553400	1.553400	1.553400	1.553400	1.553400	1.553400	1.553400	1.553400	1.553400	1.553400	1.553400	1.553400	1.553400	1.553400	1.553400	1.553400	1.553400	1.553400	1.553400	1.553400	1.553400	1.553400	1.553400	1.553400	1.553400	1.553400	1.553400	1.553400	1.553400	1.553400	1.553400
-99.000000	1.562400	1.562500	1.562500	1.562500	1.562500	1.562500	1.562500	1.562500	1.562500	1.562500	1.562500	1.562500	1.562500	1.562500	1.562500	1.562500	1.562500	1.562500	1.562500	1.562500	1.562500	1.562500	1.562500	1.562500	1.562500	1.562500	1.562500	1.562500	1.562500	1.562500	1.562500	1.562500	1.562500	1.562500	1.562500	1.562500	1.562500	1.562500	1.562500
-98.000000	1.570600	1.570600	1.570600	1.570600	1.570600	1.570600	1.570600	1.570600	1.570600	1.570600	1.570600	1.570600	1.570600	1.570600	1.570600	1.570600	1.570600	1.570600	1.570600	1.570600	1.570600	1.570600	1.570600	1.570600	1.570600	1.570600	1.570600	1.570600	1.570600	1.570600	1.570600	1.570600	1.570600	1.570600	1.570600	1.570600	1.570600	1.570600	1.570600
-97.000000	1.577800	1.577800	1.577800	1.577800	1.577800	1.577800	1.577800	1.577800	1.577800	1.577800	1.577800	1.577800	1.577800	1.577800	1.577800	1.577800	1.577800	1.577800	1.577800	1.577800	1.577800	1.577800	1.577800	1.577800	1.577800	1.577800	1.577800	1.577800	1.577800	1.577800	1.577800	1.577900	1.577900	1.577900	1.577900	1.577900	1.577900	1.577900	1.577900
-96.000000	1.584000	1.584000	1.584100	1.584100	1.584100	1.584100	1.584100	1.584100	1.584100	1.584100	1.584100	1.584100	1.584100	1.584100	1.584100	1.584100	1.584100	1.584100	1.584100	1.584100	1.584100	1.584100	1.584100	1.584100	1.584100	1.584100	1.584100	1.584100	1.584100	1.584100	1.584100	1.584100	1.584100	1.584100	1.584100	1.584100	1.584100	1.584100	1.584100
-95.000000	1.589300	1.589400	1.589400	1.589400	1.589400	1.589400	1.589400	1.589400	1.589400	1.589400	1.589400	1.589400	1.589400	1.589400	1.589400	1.589400	1.589400	1.589400	1.589400	1.589400	1.589400	1.589400	1.589400	1.589400	1.589400	1.589400	1.589400	1.589400	1.589400	1.589400	1.589400	1.589400	1.589400	1.589400	1.589400	1.589400	1.589400	1.589400	1.589400
-94.000000	1.593700	1.593700	1.593700	1.593700	1.593700	1.593800	1.593800	1.593700	1.593700	1.593700	1.593700	1.593700	1.593800	1.593800	1.593800	1.593800	1.593800	1.593800	1.593800	1.593800	1.593800	1.593800	1.593800	1.593800	1.593800	1.593800	1.593800	1.593800	1.593800	1.593800	1.593800	1.593800	1.593800	1.593800	1.593800	1.593800	1.593800	1.593800	1.593800
-93.000000	1.597100	1.597100	1.597100	1.597100	1.597100	1.597100	1.597100	1.597100	1.597100	1.597100	1.597100	1.597100	1.597100	1.597100	1.597100	1.597100	1.597200	1.597200	1.597200	1.597200	1.597200	1.597200	1.597200	1.597200	1.597200	1.597200	1.597200	1.597200	1.597200	1.597200	1.597200	1.597200	1.597200	1.597200	1.597200	1.597200	1.597200	1.597200	1.597200
-92.000000	1.599500	1.599500	1.599500	1.599500	1.599600	1.599600	1.599600	1.599500	1.599500	1.599500	1.599600	1.599600	1.599600	1.599600	1.599600	1.599600	1.599600	1.599600	1.599600	1.599600	1.599600	1.599600	1.599600	1.599600	1.599600	1.599600	1.599600	1.599600	1.599600	1.599600	1.599600	1.599600	1.599600	1.599600	1.599600	1.599600	1.599600	1.599600	1.599600
-91.000000	1.600900	1.601000	1.601000	1.601000	1.601000	1.601000	1.601000	1.601000	1.601000	1.601000	1.601000	1.601000	1.601000	1.601000	1.601000	1.601000	1.601000	1.601000	1.601000	1.601000	1.601000	1.601000	1.601000	1.601000	1.601000	1.601000	1.601000	1.601000	1.601000	1.601000	1.601000	1.601000	1.601000	1.601000	1.601000	1.601000	1.601000	1.601000	1.601000
-90.000000	1.601400	1.601400	1.601500	1.601500	1.601500	1.601500	1.601500	1.601500	1.601500	1.601500	1.601500	1.601500	1.601500	1.601500	1.601500	1.601500	1.601500	1.601500	1.601500	1.601500	1.601500	1.601500	1.601500	1.601500	1.601500	1.601500	1.601500	1.601500	1.601500	1.601500	1.601500	1.601500	1.601500	1.601500	1.601500	1.601500	1.601500	1.601500	1.601500
-89.000000	1.600900	1.600900	1.601000	1.601000	1.601000	1.601000	1.601000	1.601000	1.601000	1.601000	1.601000	1.601000	1.601000	1.601000	1.601000	1.601000	1.601000	1.601000	1.601000	1.601000	1.601000	1.601000	1.601000	1.601000	1.601000	1.601000	1.601000	1.601000	1.601000	1.601000	1.601000	1.601000	1.601000	1.601000	1.601000	1.601000	1.601000	1.601000	1.601000
-88.000000	1.599400	1.599500	1.599500	1.599500	1.599500	1.599500	1.599600	1.599500	1.599500	1.599500	1.599500	1.599500	1.599500	1.599500	1.599500	1.599600	1.599600	1.599600	1.599600	1.599600	1.599600	1.599600	1.599600	1.599600	1.599600	1.599600	1.599600	1.599600	1.599600	1.599600	1.599600	1.599600	1.599600	1.599600	1.599600	1.599600	1.599600	1.599600	1.599600
-87.000000	1.597000	1.597000	1.597100	1.597100	1.597100	1.597100	1.597100	1.597100	1.597100	1.597100	1.597100	1.597100	1.597100	1.597100	1.597100	1.597100	1.597100	1.597100	1.597100	1.597100	1.597100	1.597100	1.597100	1.597100	1.597100	1.597100	1.597100	1.597100	1.597100	1.597100	1.597100	1.597100	1.597100	1.597100	1.597100	1.597100	1.597100	1.597100	1.597100
-86.000000	1.593600	1.593600	1.593700	1.593700	1.593700	1.593700	1.593700	1.593700	1.593700	1.593700	1.593700	1.593700	1.593700	1.593700	1.593700	1.593700	1.593700	1.593700	1.593700	1.593700	1.593700	1.593700	1.593700	1.593700	1.593700	1.593700	1.593700	1.593700	1.593700	1.593700	1.593700	1.593700	1.593700	1.593700	1.593700	1.593700	1.593700	1.593700	1.593700
-85.000000	1.589200	1.589300	1.589300	1.589300	1.589300	1.589300	1.589400	1.589300	1.589300	1.589300	1.589300	1.589300	1.589300	1.589300	1.589400	1.589400	1.589400	1.589400	1.589400	1.589400	1.589400	1.589400	1.589400	1.589400	1.589400	1.589400	1.589400	1.589400	1.589400	1.589400	1.589400	1.589400	1.589400	1.589400	1.589400	1.589400	1.589400	1.589400	1.589400
-84.000000	1.583900	1.583900	1.584000	1.584000	1.584000	1.584000	1.584000	1.584000	1.584000	1.584000	1.584000	1.584000	1.584000	1.584000	1.584000	1.584000	1.584000	1.584000	1.584000	1.584000	1.584000	1.584000	1.584000	1.584000	1.584100	1.584100	1.584100	1.584100	1.584100	1.584100	1.584100	1.584100	1.584100	1.584100	1.584100	1.584100	1.584100	1.584100	1.584100
-83.000000	1.577600	1.577700	1.577700	1.577700	1.577700	1.577800	1.577800	1.577700	1.577700	1.577700	1.577700	1.577700	1.577700	1.577800	1.577800	1.577800	1.577800	1.577800	1.577800	1.577800	1.577800	1.577800	1.577800	1.577800	1.577800	1.577800	1.577800	1.577800	1.577800	1.577800	1.577800	1.577800	1.577800	1.577800	1.577800	1.577800	1.577800	1.577800	1.577800
-82.000000	1.570400	1.570400	1.570500	1.570500	1.570500	1.570500	1.570500	1.570500	1.570500	1.570500	1.570500	1.570500	1.570500	1.570500	1.570500	1.570500	1.570600	1.570600	1.570600	1.570600	1.570600	1.570600	1.570600	1.570600	1.570600	1.570600	1.570600	1.570600	1.570600	1.570600	1.570600	1.570600	1.570600	1.570600	1.570600	1.570600	1.570600	1.570600	1.570600
-81.000000	1.562200	1.562300	1.562300	1.562300	1.562400	1.562400	1.562400	1.562300	1.562300	1.562400	1.562400	1.562400	1.562400	1.562400	1.562400	1.562400	1.562400	1.562400	1.562400	1.562400	1.562400	1.562400	1.562400	1.562400	1.562400	1.562400	1.562400	1.562400	1.562400	1.562400	1.562400	1.562400	1.562400	1.562400	1.562400	1.562400	1.562400	1.562400	1.562400
-80.000000	1.553200	1.553200	1.553200	1.553300	1.553300	1.553300	1.553300	1.553300	1.553300	1.553300	1.553300	1.553300	1.553300	1.553300	1.553300	1.553300	1.553300	1.553300	1.553300	1.553300	1.553300	1.553300	1.553300	1.553300	1.553300	1.553300	1.553300	1.553300	1.553300	1.553300	1.553400	1.553400	1.553400	1.553400	1.553400	1.553400	1.553400	1.553400	1.553400
-79.000000	1.543200	1.543200	1.543200	1.543300	1.543300	1.543300	1.543300	1.543300	1.543300	1.543300	1.543300	1.543300	1.543300	1.543300	1.543300	1.543300	1.543300	1.543300	1.543300	1.543300	1.543300	1.543400	1.543400	1.543400	1.543400	1.543400	1.543400	1.543400	1.543400	1.543400	1.543400	1.543400	1.543400	1.543400	1.543400	1.543400	1.543400	1.543400	1.543400
-78.000000	1.532300	1.532300	1.532300	1.532400	1.532400	1.532400	1.532400	1.532400	1.532400	1.532400	1.532400	1.532400	1.532400	1.532400	1.532400	1.532400	1.532400	1.532500	1.532500	1.532500	1.532500	1.532500	1.532500	1.532500	1.532500	1.532500	1.532500	1.532500	1.532500	1.532500	1.532500	1.532500	1.532500	1.532500	1.532500	1.532500	1.532500	1.532500	1.532500
-77.000000	1.520500	1.520500	1.520600	1.520600	1.520600	1.520600	1.520700	1.520600	1.520600	1.520600	1.520600	1.520600	1.520600	1.520700	1.520700	1.520700	1.520700	1.520700	1.520700	1.520700	1.520700	1.520700	1.520700	1.520700	1.520700	1.520700	1.520700	1.520700	1.520700	1.520700	1.520700	1.520700	1.520700	1.520700	1.520700	1.520700	1.520700	1.520700	1.520700
-76.000000	1.507800	1.507900	1.507900	1.507900	1.508000	1.508000	1.508000	1.507900	1.507900	1.508000	1.508000	1.508000	1.508000	1.508000	1.508000	1.508000	1.508000	1.508000	1.508000	1.508000	1.508000	1.508000	1.508000	1.508000	1.508000	1.508000	1.508000	1.508000	1.508000	1.508000	1.508000	1.508000	1.508000	1.508100	1.508100	1.508100	1.508100	1.508100	1.508100
-75.000000	1.494300	1.494300	1.494400	1.494400	1.494500	1.494500	1.494500	1.494400	1.494400	1.494400	1.494500	1.494500	1.494500	1.494500	1.494500	1.494500	1.494500	1.494500	1.494500	1.494500	1.494500	1.494500	1.494500	1.494500	1.494500	1.494500	1.494500	1.494500	1.494500	1.494500	1.494500	1.494500	1.494500	1.494500	1.494500	1.494500	1.494500	1.494500	1.494500
-74.000000	1.479900	1.480000	1.480000	1.480100	1.480100	1.480100	1.480100	1.480100	1.480100	1.480100	1.480100	1.480100	1.480100	1.480100	1.480100	1.480100	1.480200	1.480200	1.480200	1.480200	1.480200	1.480200	1.480200	1.480200	1.480200	1.480200	1.480200	1.480200	1.480200	1.480200	1.480200	1.480200	1.480200	1.480200	1.480200	1.480200	1.480200	1.480200	1.480200
-73.000000	1.464700	1.464800	1.464800	1.464900	1.464900	1.464900	1.465000	1.464900	1.464900	1.464900	1.464900	1.464900	1.464900	1.465000	1.465000	1.465000	1.465000	1.465000	1.465000	1.465000	1.465000	1.465000	1.465000	1.465000	1.465000	1.465000	1.465000	1.465000	1.465000	1.465000	1.465000	1.465000	1.465000	1.465000	1.465000	1.465000	1.465000	1.465000	1.465000
-72.000000	1.448700	1.448800	1.448800	1.448900	1.448900	1.449000	1.449000	1.448900	1.448900	1.448900	1.448900	1.448900	1.449000	1.449000	1.449000	1.449000	1.449000	1.449000	1.449000	1.449000	1.449000	1.449000	1.449000	1.449000	1.449000	1.449000	1.449000	1.449000	1.449000	1.449000	1.449000	1.449000	1.449000	1.449000	1.449000	1.449000	1.449000	1.449000	1.449000
-71.000000	1.431900	1.432000	1.432100	1.432100	1.432200	1.432200	1.432200	1.432100	1.432100	1.432100	1.432200	1.432200	1.432200	1.432200	1.432200	1.432200	1.432200	1.432200	1.432200	1.432200	1.432200	1.432200	1.432200	1.432200	1.432200	1.432200	1.432200	1.432200	1.432300	1.432300	1.432300	1.432300	1.432300	1.432300	1.432300	1.432300	1.432300	1.432300	1.432300
-70.000000	1.414400	1.414400	1.414500	1.414600	1.414600	1.414600	1.414700	1.414600	1.414600	1.414600	1.414600	1.414600	1.414600	1.414700	1.414700	1.414700	1.414700	1.414700	1.414700	1.414700	1.414700	1.414700	1.414700	1.414700	1.414700	1.414700	1.414700	1.414700	1.414700	1.414700	1.414700	1.414700	1.414700	1.414700	1.414700	1.414700	1.414700	1.414700	1.414700
-69.000000	1.396100	1.396100	1.396200	1.396300	1.396300	1.396400	1.396400	1.396300	1.396300	1.396300	1.396300	1.396300	1.396400	1.396400	1.396400	1.396400	1.396400	1.396400	1.396400	1.396400	1.396400	1.396400	1.396400	1.396400	1.396400	1.396400	1.396400	1.396400	1.396400	1.396400	1.396400	1.396400	1.396400	1.396400	1.396400	1.396400	1.396400	1.396400	1.396400
-68.000000	1.377000	1.377100	1.377200	1.377300	1.377300	1.377300	1.377400	1.377200	1.377300	1.377300	1.377300	1.377300	1.377300	1.377400	1.377400	1.377400	1.377400	1.377400	1.377400	1.377400	1.377400	1.377400	1.377400	1.377400	1.377400	1.377400	1.377400	1.377400	1.377400	1.377400	1.377400	1.377400	1.377400	1.377400	1.377400	1.377400	1.377400	1.377400	1.377400
-67.000000	1.357300	1.357400	1.357500	1.357600	1.357600	1.357600	1.357700	1.357500	1.357600	1.357600	1.357600	1.357600	1.357600	1.357600	1.357700	1.357700	1.357700	1.357700	1.357700	1.357700	1.357700	1.357700	1.357700	1.357700	1.357700	1.357700	1.357700	1.357700	1.357700	1.357700	1.357700	1.357700	1.357700	1.357700	1.357700	1.357700	1.357700	1.357700	1.357700
-66.000000	1.336900	1.337000	1.337100	1.337200	1.337200	1.337200	1.337300	1.337100	1.337200	1.337200	1.337200	1.337200	1.337200	1.337300	1.337300	1.337300	1.337300	1.337300	1.337300	1.337300	1.337300	1.337300	1.337300	1.337300	1.337300	1.337300	1.337300	1.337300	1.337300	1.337300	1.337300	1.337300	1.337300	1.337400	1.337400	1.337400	1.337400	1.337400	1.337400
-65.000000	1.315800	1.315900	1.316000	1.316100	1.316200	1.316200	1.316200	1.316100	1.316100	1.316100	1.316200	1.316200	1.316200	1.316200	1.316200	1.316300	1.316300	1.316300	1.316300	1.316300	1.316300	1.316300	1.316300	1.316300	1.316300	1.316300	1.316300	1.316300	1.316300	1.316300	1.316300	1.316300	1.316300	1.316300	1.316300	1.316300	1.316300	1.316300	1.316300
-64.000000	1.294200	1.294300	1.294400	1.294400	1.294500	1.294500	1.294600	1.294400	1.294500	1.294500	1.294500	1.294500	1.294500	1.294600	1.294600	1.294600	1.294600	1.294600	1.294600	1.294600	1.294600	1.294600	1.294600	1.294600	1.294600	1.294600	1.294600	1.294600	1.294600	1.294700	1.294700	1.294700	1.294700	1.294700	1.294700	1.294700	1.294700	1.294700	1.294700
-63.000000	1.271900	1.272000	1.272100	1.272200	1.272200	1.272300	1.272300	1.272100	1.272200	1.272200	1.272200	1.272300	1.272300	1.272300	1.272300	1.272300	1.272300	1.272300	1.272400	1.272400	1.272400	1.272400	1.272400	1.272400	1.272400	1.272400	1.272400	1.272400	1.272400	1.272400	1.272400	1.272400	1.272400	1.272400	1.272400	1.272400	1.272400	1.272400	1.272400
-62.000000	1.249000	1.249100	1.249200	1.249300	1.249400	1.249400	1.249500	1.249300	1.249300	1.249400	1.249400	1.249400	1.249400	1.249500	1.249500	1.249500	1.249500	1.249500	1.249500	1.249500	1.249500	1.249500	1.249500	1.249500	1.249500	1.249600	1.249600	1.249600	1.249600	1.249600	1.249600	1.249600	1.249600	1.249600	1.249600	1.249600	1.249600	1.249600	1.249600
-61.000000	1.225600	1.225700	1.225800	1.225900	1.226000	1.226100	1.226100	1.225900	1.225900	1.226000	1.226000	1.226000	1.226100	1.226100	1.226100	1.226100	1.226100	1.226100	1.226100	1.226100	1.226200	1.226200	1.226200	1.226200	1.226200	1.226200	1.226200	1.226200	1.226200	1.226200	1.226200	1.226200	1.226200	1.226200	1.226200	1.226200	1.226200	1.226200	1.226200
-60.000000	1.201700	1.201800	1.201900	1.202000	1.202100	1.202200	1.202200	1.202000	1.202000	1.202100	1.202100	1.202100	1.202200	1.202200	1.202200	1.202200	1.202200	1.202200	1.202200	1.202300	1.202300	1.202300	1.202300	1.202300	1.202300	1.202300	1.202300	1.202300	1.202300	1.202300	1.202300	1.202300	1.202300	1.202300	1.202300	1.202300	1.202300	1.202300	1.202300
-59.000000	1.177200	1.177400	1.177500	1.177600	1.177700	1.177800	1.177800	1.177600	1.177600	1.177700	1.177700	1.177700	1.177800	1.177800	1.177800	1.177800	1.177800	1.177900	1.177900	1.177900	1.177900	1.177900	1.177900	1.177900	1.177900	1.177900	1.177900	1.177900	1.177900	1.177900	1.177900	1.177900	1.177900	1.177900	1.177900	1.177900	1.177900	1.177900	1.177900
-58.000000	1.152400	1.152500	1.152700	1.152800	1.152900	1.152900	1.153000	1.152700	1.152800	1.152800	1.152900	1.152900	1.152900	1.153000	1.153000	1.153000	1.153000	1.153000	1.153000	1.153000	1.153000	1.153000	1.153100	1.153100	1.153100	1.153100	1.153100	1.153100	1.153100	1.153100	1.153100	1.153100	1.153100	1.153100	1.153100	1.153100	1.153100	1.153100	1.153100
-57.000000	1.127000	1.127200	1.127400	1.127500	1.127600	1.127600	1.127700	1.127500	1.127500	1.127600	1.127600	1.127600	1.127700	1.127700	1.127700	1.127700	1.127700	1.127700	1.127800	1.127800	1.127800	1.127800	1.127800	1.127800	1.127800	1.127800	1.127800	1.127800	1.127800	1.127800	1.127800	1.127800	1.127800	1.127800	1.127800	1.127800	1.127800	1.127800	1.127800
-56.000000	1.101300	1.101500	1.101700	1.101800	1.101900	1.102000	1.102000	1.101800	1.101800	1.101900	1.101900	1.101900	1.102000	1.102000	1.102000	1.102100	1.102100	1.102100	1.102100	1.102100	1.102100	1.102100	1.102100	1.102100	1.102100	1.102100	1.102100	1.102100	1.102200	1.102200	1.102200	1.102200	1.102200	1.102200	1.102200	1.102200	1.102200	1.102200	1.102200
-55.000000	1.075200	1.075400	1.075600	1.075800	1.075900	1.075900	1.076000	1.075700	1.075800	1.075800	1.075900	1.075900	1.075900	1.076000	1.076000	1.076000	1.076000	1.076000	1.076100	1.076100	1.076100	1.076100	1.076100	1.076100	1.076100	1.076100	1.076100	1.076100	1.076100	1.076100	1.076100	1.076100	1.076100	1.076100	1.076100	1.076100	1.076200	1.076200	1.076200
-54.000000	1.048800	1.049000	1.049200	1.049400	1.049500	1.049600	1.049600	1.049300	1.049400	1.049400	1.049500	1.049500	1.049600	1.049600	1.049600	1.049600	1.049700	1.049700	1.049700	1.049700	1.049700	1.049700	1.049700	1.049700	1.049700	1.049700	1.049700	1.049800	1.049800	1.049800	1.049800	1.049800	1.049800	1.049800	1.049800	1.049800	1.049800	1.049800	1.049800
-53.000000	1.022100	1.022300	1.022500	1.022700	1.022800	1.022900	1.022900	1.022600	1.022700	1.022800	1.022800	1.022800	1.022900	1.022900	1.022900	1.023000	1.023000	1.023000	1.023000	1.023000	1.023000	1.023000	1.023100	1.023100	1.023100	1.023100	1.023100	1.023100	1.023100	1.023100	1.023100	1.023100	1.023100	1.023100	1.023100	1.023100	1.023100	1.023100	1.023100
-52.000000	0.995100	0.995300	0.995500	0.995700	0.995800	0.995900	0.996000	0.995700	0.995700	0.995800	0.995800	0.995900	0.995900	0.996000	0.996000	0.996000	0.996000	0.996100	0.996100	0.996100	0.996100	0.996100	0.996100	0.996100	0.996100	0.996100	0.996100	0.996200	0.996200	0.996200	0.996200	0.996200	0.996200	0.996200	0.996200	0.996200	0.996200	0.996200	0.996200
-51.000000	0.967800	0.968000	0.968300	0.968500	0.968600	0.968700	0.968800	0.968400	0.968500	0.968600	0.968600	0.968700	0.968700	0.968800	0.968800	0.968800	0.968900	0.968900	0.968900	0.968900	0.968900	0.968900	0.968900	0.968900	0.969000	0.969000	0.969000	0.969000	0.969000	0.969000	0.969000	0.969000	0.969000	0.969000	0.969000	0.969000	0.969000	0.969000	0.969000
-50.000000	0.940300	0.940600	0.940900	0.941100	0.941200	0.941300	0.941400	0.941000	0.941100	0.941200	0.941200	0.941300	0.941300	0.941400	0.941400	0.941500	0.941500	0.941500	0.941500	0.941500	0.941500	0.941500	0.941600	0.941600	0.941600	0.941600	0.941600	0.941600	0.941600	0.941600	0.941600	0.941600	0.941600	0.941600	0.941600	0.941600	0.941600	0.941600	0.941700
-49.000000	0.912700	0.912900	0.913200	0.913500	0.913600	0.913800	0.913800	0.913400	0.913500	0.913600	0.913700	0.913700	0.913800	0.913800	0.913900	0.913900	0.913900	0.913900	0.914000	0.914000	0.914000	0.914000	0.914000	0.914000	0.914000	0.914000	0.914000	0.914000	0.914100	0.914100	0.914100	0.914100	0.914100	0.914100	0.914100	0.914100	0.914100	0.914100	0.914100
-48.000000	0.884800	0.885200	0.885500	0.885700	0.885900	0.886000	0.886100	0.885700	0.885800	0.885900	0.885900	0.886000	0.886100	0.886100	0.886200	0.886200	0.886200	0.886200	0.886300	0.886300	0.886300	0.886300	0.886300	0.886300	0.886300	0.886300	0.886300	0.886400	0.886400	0.886400	0.886400	0.886400	0.886400	0.886400	0.886400	0.886400	0.886400	0.886400	0.886400
-47.000000	0.856900	0.857300	0.857600	0.857900	0.858100	0.858200	0.858300	0.857800	0.857900	0.858000	0.858100	0.858200	0.858200	0.858300	0.858300	0.858400	0.858400	0.858400	0.858400	0.858500	0.858500	0.858500	0.858500	0.858500	0.858500	0.858500	0.858500	0.858600	0.858600	0.858600	0.858600	0.858600	0.858600	0.858600	0.858600	0.858600	0.858600	0.858600	0.858600
-46.000000	0.828900	0.829300	0.829700	0.830000	0.830200	0.830300	0.830400	0.829900	0.830000	0.830100	0.830200	0.830300	0.830300	0.830400	0.830500	0.830500	0.830500	0.830500	0.830600	0.830600	0.830600	0.830600	0.830600	0.830600	0.830700	0.830700	0.830700	0.830700	0.830700	0.830700	0.830700	0.830700	0.830700	0.830700	0.830700	0.830700	0.830700	0.830800	0.830800
-45.000000	0.800800	0.801200	0.801700	0.802000	0.802200	0.802400	0.802500	0.801900	0.802000	0.802200	0.802200	0.802300	0.802400	0.802500	0.802500	0.802600	0.802600	0.802600	0.802600	0.802700	0.802700	0.802700	0.802700	0.802700	0.802700	0.802800	0.802800	0.802800	0.802800	0.802800	0.802800	0.802800	0.802800	0.802800	0.802800	0.802800	0.802800	0.802800	0.802900
-44.000000	0.772700	0.773200	0.773600	0.774000	0.774200	0.774400	0.774500	0.773900	0.774100	0.774200	0.774300	0.774400	0.774500	0.774500	0.774600	0.774600	0.774700	0.774700	0.774700	0.774700	0.774800	0.774800	0.774800	0.774800	0.774800	0.774800	0.774800	0.774900	0.774900	0.774900	0.774900	0.774900	0.774900	0.774900	0.774900	0.774900	0.774900	0.774900	0.774900
-43.000000	0.744600	0.745100	0.745600	0.746000	0.746300	0.746500	0.746600	0.746000	0.746100	0.746200	0.746300	0.746400	0.746500	0.746600	0.746700	0.746700	0.746800	0.746800	0.746800	0.746800	0.746900	0.746900	0.746900	0.746900	0.746900	0.746900	0.747000	0.747000	0.747000	0.747000	0.747000	0.747000	0.747000	0.747000	0.747000	0.747000	0.747000	0.747100	0.747100
-42.000000	0.716600	0.717100	0.717700	0.718100	0.718400	0.718600	0.718800	0.718000	0.718200	0.718300	0.718500	0.718600	0.718700	0.718700	0.718800	0.718900	0.718900	0.718900	0.719000	0.719000	0.719000	0.719000	0.719100	0.719100	0.719100	0.719100	0.719100	0.719100	0.719100	0.719200	0.719200	0.719200	0.719200	0.719200	0.719200	0.719200	0.719200	0.719200	0.719200
-41.000000	0.688600	0.689200	0.689800	0.690300	0.690600	0.690800	0.691000	0.690200	0.690400	0.690500	0.690700	0.690800	0.690900	0.691000	0.691000	0.691100	0.691200	0.691200	0.691200	0.691300	0.691300	0.691300	0.691300	0.691300	0.691400	0.691400	0.691400	0.691400	0.691400	0.691400	0.691400	0.691400	0.691500	0.691500	0.691500	0.691500	0.691500	0.691500	0.691500
-40.000000	0.660600	0.661300	0.662000	0.662500	0.662900	0.663100	0.663300	0.662400	0.662700	0.662800	0.663000	0.663100	0.663200	0.663300	0.663400	0.663500	0.663500	0.663600	0.663600	0.663600	0.663700	0.663700	0.663700	0.663700	0.663700	0.663800	0.663800	0.663800	0.663800	0.663800	0.663800	0.663800	0.663900	0.663900	0.663900	0.663900	0.663900	0.663900	0.663900
-39.000000	0.632800	0.633600	0.634400	0.634900	0.635300	0.635600	0.635800	0.634900	0.635100	0.635300	0.635400	0.635600	0.635700	0.635800	0.635900	0.636000	0.636000	0.636100	0.636100	0.636200	0.636200	0.636200	0.636200	0.636300	0.636300	0.636300	0.636300	0.636300	0.636300	0.636400	0.636400	0.636400	0.636400	0.636400	0.636400	0.636400	0.636400	0.636500	0.636500
-38.000000	0.605200	0.606000	0.606900	0.607500	0.608000	0.608300	0.608500	0.607400	0.607700	0.607900	0.608100	0.608200	0.608400	0.608500	0.608600	0.608700	0.608700	0.608800	0.608800	0.608900	0.608900	0.608900	0.609000	0.609000	0.609000	0.609000	0.609000	0.609100	0.609100	0.609100	0.609100	0.609100	0.609100	0.609200	0.609200	0.609200	0.609200	0.609200	0.609200
-37.000000	0.577700	0.578600	0.579600	0.580300	0.580800	0.581100	0.581400	0.580200	0.580500	0.580700	0.580900	0.581100	0.581300	0.581400	0.581500	0.581600	0.581700	0.581700	0.581800	0.581800	0.581800	0.581900	0.581900	0.581900	0.582000	0.582000	0.582000	0.582000	0.582000	0.582100	0.582100	0.582100	0.582100	0.582100	0.582100	0.582100	0.582200	0.582200	0.582200
-36.000000	0.550300	0.551400	0.552500	0.553300	0.553800	0.554200	0.554500	0.553200	0.553500	0.553800	0.554000	0.554200	0.554400	0.554500	0.554700	0.554800	0.554800	0.554900	0.554900	0.555000	0.555000	0.555100	0.555100	0.555100	0.555200	0.555200	0.555200	0.555200	0.555200	0.555300	0.555300	0.555300	0.555300	0.555300	0.555300	0.555400	0.555400	0.555400	0.555400
-35.000000	0.523200	0.524400	0.525700	0.526500	0.527200	0.527600	0.527900	0.526500	0.526800	0.527100	0.527400	0.527600	0.527800	0.527900	0.528100	0.528200	0.528300	0.528300	0.528400	0.528400	0.528500	0.528500	0.528600	0.528600	0.528600	0.528700	0.528700	0.528700	0.528700	0.528800	0.528800	0.528800	0.528800	0.528800	0.528800	0.528900	0.528900	0.528900	0.528900
-34.000000	0.496300	0.497700	0.499100	0.500100	0.500700	0.501200	0.501600	0.500000	0.500400	0.500700	0.501000	0.501200	0.501500	0.501600	0.501800	0.501900	0.502000	0.502100	0.502200	0.502200	0.502300	0.502300	0.502300	0.502400	0.502400	0.502400	0.502500	0.502500	0.502500	0.502600	0.502600	0.502600	0.502600	0.502600	0.502700	0.502700	0.502700	0.502700	0.502700
-33.000000	0.469500	0.471100	0.472700	0.473900	0.474600	0.475200	0.475600	0.473800	0.474200	0.474600	0.474900	0.475200	0.475500	0.475700	0.475800	0.476000	0.476100	0.476200	0.476200	0.476300	0.476400	0.476400	0.476500	0.476500	0.476500	0.476600	0.476600	0.476600	0.476700	0.476700	0.476700	0.476700	0.476800	0.476800	0.476800	0.476800	0.476800	0.476900	0.476900
-32.000000	0.443000	0.444800	0.446700	0.448000	0.448900	0.449500	0.450000	0.447900	0.448400	0.448800	0.449200	0.449500	0.449800	0.450000	0.450200	0.450400	0.450500	0.450600	0.450700	0.450800	0.450800	0.450900	0.450900	0.451000	0.451000	0.451100	0.451100	0.451100	0.451200	0.451200	0.451200	0.451200	0.451300	0.451300	0.451300	0.451300	0.451400	0.451400	0.451400
-31.000000	0.416600	0.418800	0.420900	0.422400	0.423400	0.424200	0.424700	0.422300	0.422900	0.423400	0.423800	0.424200	0.424500	0.424800	0.425000	0.425200	0.425300	0.425400	0.425500	0.425600	0.425700	0.425700	0.425800	0.425800	0.425900	0.425900	0.426000	0.426000	0.426000	0.426100	0.426100	0.426100	0.426200	0.426200	0.426200	0.426200	0.426300	0.426300	0.426300
-30.000000	0.390400	0.392900	0.395400	0.397100	0.398300	0.399200	0.399800	0.397100	0.397800	0.398300	0.398800	0.399200	0.399600	0.399900	0.400100	0.400300	0.400500	0.400600	0.400700	0.400800	0.400900	0.401000	0.401000	0.401100	0.401200	0.401200	0.401300	0.401300	0.401300	0.401400	0.401400	0.401400	0.401500	0.401500	0.401500	0.401600	0.401600	0.401600	0.401600
-29.000000	0.364400	0.367300	0.370200	0.372200	0.373600	0.374500	0.375200	0.372200	0.373000	0.373600	0.374200	0.374700	0.375100	0.375400	0.375700	0.375900	0.376100	0.376300	0.376400	0.376500	0.376600	0.376600	0.376700	0.376800	0.376900	0.376900	0.377000	0.377000	0.377100	0.377100	0.377100	0.377200	0.377200	0.377300	0.377300	0.377300	0.377300	0.377400	0.377400
-28.000000	0.338300	0.341700	0.345200	0.347500	0.349200	0.350300	0.351100	0.347500	0.348500	0.349300	0.349900	0.350500	0.351000	0.351400	0.351700	0.351900	0.352200	0.352300	0.352500	0.352600	0.352700	0.352800	0.352800	0.352900	0.353000	0.353100	0.353100	0.353200	0.353200	0.353300	0.353300	0.353400	0.353400	0.353500	0.353500	0.353500	0.353600	0.353600	0.353600
-27.000000	0.312200	0.316300	0.320400	0.323200	0.325100	0.326400	0.327400	0.323200	0.324400	0.325200	0.326000	0.326700	0.327200	0.327700	0.328100	0.328400	0.328600	0.328800	0.329000	0.329100	0.329200	0.329300	0.329400	0.329500	0.329600	0.329700	0.329700	0.329800	0.329900	0.329900	0.330000	0.330000	0.330100	0.330100	0.330200	0.330200	0.330300	0.330300	0.330300
-26.000000	0.286000	0.290800	0.295700	0.299100	0.301300	0.302900	0.304000	0.299200	0.300500	0.301600	0.302400	0.303200	0.303900	0.304400	0.304900	0.305200	0.305500	0.305800	0.305900	0.306100	0.306200	0.306400	0.306500	0.306600	0.306700	0.306800	0.306800	0.306900	0.307000	0.307100	0.307100	0.307200	0.307200	0.307300	0.307300	0.307400	0.307400	0.307500	0.307500
-25.000000	0.259400	0.265300	0.271100	0.275100	0.277800	0.279700	0.281000	0.275300	0.276900	0.278200	0.279200	0.280100	0.280900	0.281600	0.282100	0.282500	0.282900	0.283100	0.283300	0.283500	0.283700	0.283800	0.284000	0.284100	0.284200	0.284300	0.284400	0.284500	0.284600	0.284700	0.284700	0.284800	0.284900	0.284900	0.285000	0.285000	0.285100	0.285100	0.285200
-24.000000	0.232300	0.239400	0.246400	0.251200	0.254500	0.256800	0.258400	0.251600	0.253500	0.255000	0.256300	0.257400	0.258300	0.259100	0.259700	0.260200	0.260600	0.260900	0.261200	0.261400	0.261600	0.261800	0.261900	0.262100	0.262200	0.262300	0.262400	0.262500	0.262600	0.262700	0.262800	0.262900	0.263000	0.263000	0.263100	0.263200	0.263200	0.263300	0.263300
-23.000000	0.204600	0.213000	0.221500	0.227400	0.231300	0.234100	0.236000	0.227900	0.230200	0.232000	0.233500	0.234900	0.236000	0.236900	0.237700	0.238300	0.238800	0.239100	0.239400	0.239700	0.239900	0.240100	0.240300	0.240500	0.240600	0.240800	0.240900	0.241000	0.241200	0.241300	0.241400	0.241500	0.241600	0.241600	0.241700	0.241800	0.241900	0.241900	0.242000
-22.000000	0.176100	0.186000	0.196200	0.203300	0.208100	0.211400	0.213800	0.204100	0.206900	0.209100	0.210900	0.212600	0.213900	0.215100	0.215900	0.216700	0.217200	0.217700	0.218000	0.218300	0.218600	0.218900	0.219100	0.219300	0.219500	0.219700	0.219800	0.220000	0.220100	0.220200	0.220400	0.220500	0.220600	0.220700	0.220800	0.220900	0.221000	0.221000	0.221100
-21.000000	0.146900	0.158400	0.170400	0.178900	0.184700	0.188800	0.191700	0.180000	0.183400	0.186100	0.188400	0.190300	0.192000	0.193300	0.194400	0.195300	0.196000	0.196500	0.197000	0.197300	0.197700	0.198000	0.198200	0.198500	0.198700	0.198900	0.199100	0.199300	0.199500	0.199600	0.199800	0.199900	0.200000	0.200200	0.200300	0.200400	0.200500	0.200600	0.200700
-20.000000	0.117800	0.130300	0.144000	0.154100	0.161100	0.166000	0.169500	0.155600	0.159700	0.162900	0.165700	0.168000	0.170000	0.171700	0.173000	0.174100	0.174900	0.175600	0.176100	0.176600	0.177000	0.177300	0.177700	0.178000	0.178200	0.178500	0.178700	0.178900	0.179100	0.179300	0.179500	0.179700	0.179800	0.180000	0.180100	0.180200	0.180400	0.180500	0.180600
-19.000000	0.089900	0.102600	0.117400	0.128800	0.137100	0.142900	0.147200	0.130900	0.135700	0.139500	0.142800	0.145600	0.148000	0.150100	0.151600	0.152900	0.154000	0.154800	0.155400	0.156000	0.156400	0.156900	0.157300	0.157600	0.158000	0.158300	0.158600	0.158800	0.159100	0.159300	0.159500	0.159700	0.159900	0.160100	0.160300	0.160400	0.160600	0.160700	0.160900
-18.000000	0.065200	0.076700	0.091300	0.103500	0.112800	0.119600	0.124600	0.106200	0.111500	0.115900	0.119700	0.123000	0.125900	0.128300	0.130200	0.131700	0.133000	0.134000	0.134700	0.135400	0.136000	0.136500	0.137000	0.137500	0.137900	0.138200	0.138600	0.138900	0.139200	0.139500	0.139800	0.140000	0.140200	0.140500	0.140700	0.140800	0.141000	0.141200	0.141400
-17.000000	0.045600	0.054600	0.067400	0.079200	0.088800	0.096200	0.101900	0.082200	0.087800	0.092500	0.096700	0.100500	0.103700	0.106500	0.108700	0.110500	0.112000	0.113200	0.114100	0.114900	0.115600	0.116200	0.116800	0.117300	0.117800	0.118300	0.118700	0.119100	0.119500	0.119800	0.120100	0.120400	0.120700	0.120900	0.121200	0.121400	0.121600	0.121800	0.122000
-16.000000	0.032300	0.038100	0.047600	0.057400	0.066300	0.073700	0.079600	0.060500	0.065800	0.070400	0.074600	0.078500	0.082000	0.085100	0.087500	0.089500	0.091200	0.092500	0.093600	0.094500	0.095300	0.096000	0.096700	0.097300	0.097900	0.098400	0.098900	0.099400	0.099800	0.100200	0.100600	0.100900	0.101200	0.101600	0.101800	0.102100	0.102400	0.102600	0.102900
-15.000000	0.024600	0.027700	0.033400	0.040200	0.047200	0.053600	0.059000	0.042800	0.047100	0.051000	0.054700	0.058400	0.061700	0.064800	0.067200	0.069300	0.071000	0.072500	0.073600	0.074600	0.075400	0.076200	0.077000	0.077700	0.078300	0.078900	0.079500	0.080000	0.080400	0.080900	0.081300	0.081700	0.082100	0.082400	0.082800	0.083100	0.083400	0.083700	0.083900
-14.000000	0.020900	0.022100	0.024900	0.028700	0.033100	0.037700	0.041900	0.030500	0.033300	0.036000	0.038800	0.041700	0.044500	0.047000	0.049200	0.051100	0.052700	0.054100	0.055200	0.056100	0.057000	0.057800	0.058500	0.059200	0.059800	0.060400	0.061000	0.061500	0.062000	0.062500	0.062900	0.063400	0.063700	0.064100	0.064500	0.064800	0.065100	0.065400	0.065700
-13.000000	0.019300	0.019600	0.020600	0.022300	0.024500	0.027000	0.029600	0.023200	0.024700	0.026200	0.027900	0.029700	0.031600	0.033400	0.035000	0.036500	0.037700	0.038800	0.039700	0.040500	0.041200	0.041900	0.042500	0.043100	0.043700	0.044200	0.044700	0.045200	0.045700	0.046100	0.046500	0.046900	0.047200	0.047600	0.047900	0.048200	0.048500	0.048800	0.049100
-12.000000	0.018500	0.018600	0.018800	0.019300	0.020100	0.021200	0.022500	0.019700	0.020300	0.021000	0.021700	0.022600	0.023600	0.024600	0.025600	0.026400	0.027200	0.027900	0.028500	0.029000	0.029500	0.030000	0.030500	0.030900	0.031300	0.031700	0.032000	0.032400	0.032700	0.033100	0.033400	0.033700	0.033900	0.034200	0.034500	0.034700	0.035000	0.035200	0.035400
-11.000000	0.018000	0.018000	0.018000	0.018100	0.018300	0.018600	0.019000	0.018200	0.018300	0.018600	0.018800	0.019100	0.019500	0.020000	0.020400	0.020800	0.021200	0.021500	0.021800	0.022100	0.022300	0.022600	0.022800	0.023100	0.023300	0.023500	0.023700	0.023900	0.024100	0.024300	0.024500	0.024700	0.024900	0.025000	0.025200	0.025300	0.025500	0.025600	0.025800
-10.000000	0.037300	0.033300	0.030600	0.028600	0.027000	0.025800	0.024700	0.023800	0.023100	0.022500	0.021900	0.021400	0.020900	0.020600	0.020200	0.019900	0.019600	0.019300	0.019000	0.018700	0.018500	0.018300	0.018100	0.017900	0.017700	0.017500	0.017400	0.017200	0.017000	0.016900	0.016700	0.016600	0.016500	0.016400	0.016200	0.016100	0.016000	0.015900	0.015800
-9.500000	0.035400	0.031600	0.029100	0.027200	0.025700	0.024500	0.023600	0.022800	0.022100	0.021500	0.021000	0.020500	0.020100	0.019700	0.019400	0.019000	0.018700	0.018500	0.018200	0.018000	0.017800	0.017600	0.017400	0.017200	0.017000	0.016800	0.016700	0.016600	0.016400	0.016300	0.016200	0.016000	0.015900	0.015800	0.015700	0.015600	0.015500	0.015400	0.015300
-9.000000	0.033700	0.030100	0.027700	0.025900	0.024500	0.023500	0.022600	0.021800	0.021200	0.020600	0.020100	0.019700	0.019300	0.019000	0.018600	0.018300	0.018100	0.017800	0.017600	0.017300	0.017100	0.016900	0.016800	0.016600	0.016400	0.016300	0.016200	0.016000	0.015900	0.015700	0.015600	0.015500	0.015400	0.015300	0.015200	0.015100	0.015000	0.014900	0.014800
-8.500000	0.032100	0.028700	0.026400	0.024800	0.023500	0.022500	0.021700	0.021000	0.020400	0.019800	0.019400	0.019000	0.018600	0.018300	0.018000	0.017700	0.017400	0.017200	0.017000	0.016800	0.016600	0.016400	0.016200	0.016100	0.015900	0.015800	0.015600	0.015500	0.015400	0.015300	0.015100	0.015000	0.014900	0.014800	0.014700	0.014600	0.014600	0.014500	0.014400
-8.000000	0.030800	0.027500	0.025400	0.023800	0.022600	0.021700	0.020900	0.020200	0.019700	0.019200	0.018700	0.018300	0.018000	0.017700	0.017400	0.017100	0.016900	0.016700	0.016400	0.016200	0.016100	0.015900	0.015700	0.015600	0.015500	0.015300	0.015200	0.015100	0.014900	0.014800	0.014700	0.014600	0.014500	0.014400	0.014300	0.014200	0.014100	0.014100	0.014000
-7.500000	0.029600	0.026400	0.024400	0.022900	0.021800	0.020900	0.020200	0.019500	0.019000	0.018500	0.018100	0.017800	0.017400	0.017100	0.016900	0.016600	0.016400	0.016200	0.016000	0.015800	0.015600	0.015500	0.015300	0.015200	0.015000	0.014900	0.014800	0.014600	0.014500	0.014400	0.014300	0.014200	0.014100	0.014100	0.014000	0.013900	0.013800	0.013700	0.013600
-7.000000	0.028500	0.025500	0.023600	0.022200	0.021100	0.020200	0.019500	0.019000	0.018500	0.018000	0.017600	0.017300	0.017000	0.016700	0.016400	0.016200	0.016000	0.015800	0.015600	0.015400	0.015200	0.015100	0.014900	0.014800	0.014700	0.014500	0.014400	0.014300	0.014200	0.014100	0.014000	0.013900	0.013800	0.013700	0.013600	0.013500	0.013500	0.013400	0.013300
-6.500000	0.027600	0.024700	0.022800	0.021500	0.020500	0.019700	0.019000	0.018400	0.017900	0.017500	0.017200	0.016800	0.016500	0.016300	0.016000	0.015800	0.015600	0.015400	0.015200	0.015000	0.014900	0.014700	0.014600	0.014500	0.014300	0.014200	0.014100	0.014000	0.013900	0.013800	0.013700	0.013600	0.013500	0.013400	0.013400	0.013300	0.013200	0.013100	0.013100
-6.000000	0.026700	0.024000	0.022200	0.020900	0.019900	0.019100	0.018500	0.018000	0.017500	0.017100	0.016700	0.016400	0.016200	0.015900	0.015700	0.015400	0.015200	0.015100	0.014900	0.014700	0.014600	0.014400	0.014300	0.014200	0.014000	0.013900	0.013800	0.013700	0.013600	0.013500	0.013400	0.013300	0.013300	0.013200	0.013100	0.013000	0.012900	0.012900	0.012800
-5.500000	0.026000	0.023300	0.021600	0.020400	0.019400	0.018700	0.018100	0.017600	0.017100	0.016700	0.016400	0.016100	0.015800	0.015600	0.015300	0.015100	0.014900	0.014800	0.014600	0.014400	0.014300	0.014200	0.014000	0.013900	0.013800	0.013700	0.013600	0.013500	0.013400	0.013300	0.013200	0.013100	0.013000	0.012900	0.012900	0.012800	0.012700	0.012700	0.012600
-5.000000	0.025400	0.022800	0.021100	0.019900	0.019000	0.018300	0.017700	0.017200	0.016800	0.016400	0.016100	0.015800	0.015500	0.015300	0.015100	0.014900	0.014700	0.014500	0.014300	0.014200	0.014000	0.013900	0.013800	0.013700	0.013500	0.013400	0.013300	0.013200	0.013100	0.013100	0.013000	0.012900	0.012800	0.012700	0.012700	0.012600	0.012500	0.012400	0.012400
-4.500000	0.024900	0.022300	0.020700	0.019500	0.018700	0.018000	0.017400	0.016900	0.016500	0.016100	0.015800	0.015500	0.015300	0.015000	0.014800	0.014600	0.014400	0.014300	0.014100	0.014000	0.013800	0.013700	0.013600	0.013500	0.013300	0.013200	0.013100	0.013000	0.012900	0.012900	0.012800	0.012700	0.012600	0.012500	0.012500	0.012400	0.012300	0.012300	0.012200
-4.000000	0.024400	0.021900	0.020300	0.019200	0.018300	0.017700	0.017100	0.016700	0.016300	0.015900	0.015600	0.015300	0.015100	0.014800	0.014600	0.014400	0.014200	0.014100	0.013900	0.013800	0.013600	0.013500	0.013400	0.013300	0.013200	0.013100	0.013000	0.012900	0.012800	0.012700	0.012600	0.012500	0.012500	0.012400	0.012300	0.012300	0.012200	0.012100	0.012100
-3.500000	0.024000	0.021600	0.020000	0.018900	0.018100	0.017400	0.016900	0.016400	0.016000	0.015700	0.015400	0.015100	0.014900	0.014600	0.014400	0.014200	0.014100	0.013900	0.013800	0.013600	0.013500	0.013400	0.013200	0.013100	0.013000	0.012900	0.012800	0.012700	0.012700	0.012600	0.012500	0.012400	0.012400	0.012300	0.012200	0.012200	0.012100	0.012100	0.012000
-3.000000	0.023700	0.021300	0.019800	0.018700	0.017900	0.017200	0.016700	0.016200	0.015900	0.015500	0.015200	0.015000	0.014700	0.014500	0.014300	0.014100	0.013900	0.013800	0.013700	0.013500	0.013400	0.013300	0.013200	0.013100	0.013000	0.012900	0.012800	0.012700	0.012600	0.012500	0.012500	0.012400	0.012300	0.012300	0.012200	0.012100	0.012100	0.012000	0.012000
-2.500000	0.023400	0.021000	0.019500	0.018500	0.017700	0.017100	0.016500	0.016100	0.015700	0.015400	0.015100	0.014900	0.014600	0.014400	0.014200	0.014100	0.013900	0.013700	0.013600	0.013500	0.013400	0.013300	0.013100	0.013000	0.013000	0.012900	0.012800	0.012700	0.012600	0.012500	0.012500	0.012400	0.012300	0.012300	0.012200	0.012100	0.012100	0.012000	0.012000
-2.000000	0.023300	0.020900	0.019400	0.018400	0.017600	0.017000	0.016500	0.016000	0.015700	0.015400	0.015100	0.014800	0.014600	0.014400	0.014200	0.014100	0.013900	0.013700	0.013600	0.013500	0.013400	0.013200	0.013100	0.013000	0.012900	0.012800	0.012700	0.012700	0.012600	0.012500	0.012400	0.012400	0.012300	0.012200	0.012200	0.012100	0.012000	0.012000	0.011900
-1.500000	0.023200	0.020800	0.019300	0.018300	0.017500	0.016900	0.016400	0.016000	0.015700	0.015400	0.015100	0.014800	0.014600	0.014400	0.014200	0.014000	0.013900	0.013700	0.013600	0.013400	0.013300	0.013200	0.013100	0.013000	0.012900	0.012800	0.012700	0.012600	0.012500	0.012500	0.012400	0.012300	0.012300	0.012200	0.012100	0.012100	0.012000	0.011900	0.011900
-1.000000	0.023100	0.020800	0.019300	0.018300	0.017500	0.016900	0.016400	0.016000	0.015600	0.015300	0.015100	0.014800	0.014600	0.014400	0.014200	0.014000	0.013800	0.013700	0.013600	0.013400	0.013300	0.013200	0.013100	0.013000	0.012900	0.012800	0.012700	0.012600	0.012500	0.012400	0.012400	0.012300	0.012200	0.012200	0.012100	0.012000	0.012000	0.011900	0.011900
-0.500000	0.023100	0.020700	0.019300	0.018300	0.017500	0.016900	0.016400	0.016000	0.015600	0.015300	0.015000	0.014800	0.014600	0.014400	0.014200	0.014000	0.013800	0.013700	0.013500	0.013400	0.013300	0.013200	0.013100	0.013000	0.012900	0.012800	0.012700	0.012600	0.012500	0.012400	0.012400	0.012300	0.012200	0.012200	0.012100	0.012000	0.012000	0.011900	0.011900
0.000000	0.023100	0.020700	0.019300	0.018300	0.017500	0.016900	0.016400	0.016000	0.015600	0.015300	0.015000	0.014800	0.014600	0.014300	0.014200	0.014000	0.013800	0.013700	0.013500	0.013400	0.013300	0.013200	0.013100	0.013000	0.012900	0.012800	0.012700	0.012600	0.012500	0.012400	0.012400	0.012300	0.012200	0.012200	0.012100	0.012000	0.012000	0.011900	0.011900
0.500000	0.023100	0.020700	0.019300	0.018300	0.017500	0.016900	0.016400	0.016000	0.015600	0.015300	0.015000	0.014800	0.014600	0.014400	0.014200	0.014000	0.013800	0.013700	0.013500	0.013400	0.013300	0.013200	0.013100	0.013000	0.012900	0.012800	0.012700	0.012600	0.012500	0.012400	0.012400	0.012300	0.012200	0.012200	0.012100	0.012000	0.012000	0.011900	0.011900
1.000000	0.023100	0.020800	0.019300	0.018300	0.017500	0.016900	0.016400	0.016000	0.015600	0.015300	0.015100	0.014800	0.014600	0.014400	0.014200	0.014000	0.013800	0.013700	0.013600	0.013400	0.013300	0.013200	0.013100	0.013000	0.012900	0.012800	0.012700	0.012600	0.012500	0.012400	0.012400	0.012300	0.012200	0.012200	0.012100	0.012000	0.012000	0.011900	0.011900
1.500000	0.023200	0.020800	0.019300	0.018300	0.017500	0.016900	0.016400	0.016000	0.015700	0.015400	0.015100	0.014800	0.014600	0.014400	0.014200	0.014000	0.013900	0.013700	0.013600	0.013400	0.013300	0.013200	0.013100	0.013000	0.012900	0.012800	0.012700	0.012600	0.012500	0.012500	0.012400	0.012300	0.012300	0.012200	0.012100	0.012100	0.012000	0.011900	0.011900
2.000000	0.023300	0.020900	0.019400	0.018400	0.017600	0.017000	0.016500	0.016000	0.015700	0.015400	0.015100	0.014800	0.014600	0.014400	0.014200	0.014100	0.013900	0.013700	0.013600	0.013500	0.013400	0.013200	0.013100	0.013000	0.012900	0.012800	0.012700	0.012700	0.012600	0.012500	0.012400	0.012400	0.012300	0.012200	0.012200	0.012100	0.012000	0.012000	0.011900
2.500000	0.023400	0.021000	0.019500	0.018500	0.017700	0.017100	0.016500	0.016100	0.015700	0.015400	0.015100	0.014900	0.014600	0.014400	0.014200	0.014100	0.013900	0.013700	0.013600	0.013500	0.013400	0.013300	0.013100	0.013000	0.013000	0.012900	0.012800	0.012700	0.012600	0.012500	0.012500	0.012400	0.012300	0.012300	0.012200	0.012100	0.012100	0.012000	0.012000
3.000000	0.023700	0.021300	0.019700	0.018700	0.017900	0.017200	0.016700	0.016200	0.015900	0.015500	0.015200	0.014900	0.014700	0.014500	0.014300	0.014100	0.013900	0.013800	0.013700	0.013500	0.013400	0.013300	0.013200	0.013100	0.013000	0.012900	0.012800	0.012700	0.012600	0.012500	0.012500	0.012400	0.012300	0.012300	0.012200	0.012100	0.012100	0.012000	0.012000
3.500000	0.024000	0.021600	0.020000	0.018900	0.018100	0.017400	0.016900	0.016400	0.016000	0.015700	0.015400	0.015100	0.014900	0.014600	0.014400	0.014200	0.014100	0.013900	0.013800	0.013600	0.013500	0.013400	0.013200	0.013100	0.013000	0.012900	0.012800	0.012700	0.012700	0.012600	0.012500	0.012400	0.012400	0.012300	0.012200	0.012200	0.012100	0.012100	0.012000
4.000000	0.024400	0.021900	0.020300	0.019200	0.018300	0.017700	0.017100	0.016600	0.016200	0.015900	0.015600	0.015300	0.015000	0.014800	0.014600	0.014400	0.014200	0.014100	0.013900	0.013800	0.013600	0.013500	0.013400	0.013300	0.013200	0.013100	0.013000	0.012900	0.012800	0.012700	0.012600	0.012500	0.012500	0.012400	0.012300	0.012300	0.012200	0.012100	0.012100
4.500000	0.024800	0.022300	0.020700	0.019500	0.018700	0.018000	0.017400	0.016900	0.016500	0.016100	0.015800	0.015500	0.015300	0.015000	0.014800	0.014600	0.014400	0.014300	0.014100	0.014000	0.013800	0.013700	0.013600	0.013500	0.013300	0.013200	0.013100	0.013000	0.012900	0.012900	0.012800	0.012700	0.012600	0.012500	0.012500	0.012400	0.012300	0.012300	0.012200
5.000000	0.025400	0.022800	0.021100	0.019900	0.019000	0.018300	0.017700	0.017200	0.016800	0.016400	0.016100	0.015800	0.015500	0.015300	0.015100	0.014900	0.014700	0.014500	0.014300	0.014200	0.014000	0.013900	0.013800	0.013700	0.013500	0.013400	0.013300	0.013200	0.013100	0.013100	0.013000	0.012900	0.012800	0.012700	0.012700	0.012600	0.012500	0.012400	0.012400
5.500000	0.026000	0.023300	0.021600	0.020400	0.019400	0.018700	0.018100	0.017600	0.017100	0.016700	0.016400	0.016100	0.015800	0.015600	0.015300	0.015100	0.014900	0.014800	0.014600	0.014400	0.014300	0.014200	0.014000	0.013900	0.013800	0.013700	0.013600	0.013500	0.013400	0.013300	0.013200	0.013100	0.013000	0.012900	0.012900	0.012800	0.012700	0.012600	0.012600
6.000000	0.026700	0.023900	0.022200	0.020900	0.019900	0.019100	0.018500	0.018000	0.017500	0.017100	0.016700	0.016400	0.016200	0.015900	0.015700	0.015400	0.015200	0.015100	0.014900	0.014700	0.014600	0.014400	0.014300	0.014200	0.014000	0.013900	0.013800	0.013700	0.013600	0.013500	0.013400	0.013300	0.013200	0.013200	0.013100	0.013000	0.012900	0.012900	0.012800
6.500000	0.027500	0.024700	0.022800	0.021500	0.020500	0.019600	0.019000	0.018400	0.017900	0.017500	0.017200	0.016800	0.016500	0.016200	0.016000	0.015800	0.015600	0.015400	0.015200	0.015000	0.014900	0.014700	0.014600	0.014500	0.014300	0.014200	0.014100	0.014000	0.013900	0.013800	0.013700	0.013600	0.013500	0.013400	0.013300	0.013300	0.013200	0.013100	0.013100
7.000000	0.028500	0.025500	0.023500	0.022200	0.021100	0.020200	0.019500	0.018900	0.018400	0.018000	0.017600	0.017300	0.017000	0.016700	0.016400	0.016200	0.016000	0.015800	0.015600	0.015400	0.015200	0.015100	0.014900	0.014800	0.014700	0.014500	0.014400	0.014300	0.014200	0.014100	0.014000	0.013900	0.013800	0.013700	0.013600	0.013500	0.013500	0.013400	0.013300
7.500000	0.029500	0.026400	0.024400	0.022900	0.021800	0.020900	0.020200	0.019500	0.019000	0.018500	0.018100	0.017800	0.017400	0.017100	0.016900	0.016600	0.016400	0.016200	0.016000	0.015800	0.015600	0.015500	0.015300	0.015200	0.015000	0.014900	0.014800	0.014600	0.014500	0.014400	0.014300	0.014200	0.014100	0.014000	0.014000	0.013900	0.013800	0.013700	0.013600
8.000000	0.030700	0.027500	0.025400	0.023800	0.022600	0.021600	0.020800	0.020200	0.019600	0.019100	0.018700	0.018300	0.018000	0.017700	0.017400	0.017100	0.016900	0.016600	0.016400	0.016200	0.016100	0.015900	0.015700	0.015600	0.015400	0.015300	0.015200	0.015100	0.014900	0.014800	0.014700	0.014600	0.014500	0.014400	0.014300	0.014200	0.014100	0.014100	0.014000
8.500000	0.032100	0.028700	0.026400	0.024800	0.023500	0.022500	0.021700	0.021000	0.020300	0.019800	0.019400	0.019000	0.018600	0.018300	0.017900	0.017700	0.017400	0.017200	0.017000	0.016800	0.016600	0.016400	0.016200	0.016000	0.015900	0.015700	0.015600	0.015500	0.015400	0.015200	0.015100	0.015000	0.014900	0.014800	0.014700	0.014600	0.014500	0.014500	0.014400
9.000000	0.033600	0.030000	0.027600	0.025900	0.024500	0.023500	0.022500	0.021800	0.021200	0.020600	0.020100	0.019700	0.019300	0.018900	0.018600	0.018300	0.018000	0.017800	0.017500	0.017300	0.017100	0.016900	0.016800	0.016600	0.016400	0.016300	0.016100	0.016000	0.015900	0.015700	0.015600	0.015500	0.015400	0.015300	0.015200	0.015100	0.015000	0.014900	0.014800
9.500000	0.035300	0.031500	0.029000	0.027100	0.025700	0.024500	0.023600	0.022800	0.022100	0.021500	0.020900	0.020500	0.020100	0.019700	0.019300	0.019000	0.018700	0.018500	0.018200	0.018000	0.017800	0.017600	0.017400	0.017200	0.017000	0.016800	0.016700	0.016500	0.016400	0.016300	0.016100	0.016000	0.015900	0.015800	0.015700	0.015600	0.015500	0.015400	0.015300
10.000000	0.037300	0.033200	0.030600	0.028500	0.027000	0.025700	0.024700	0.023800	0.023100	0.022500	0.021900	0.021400	0.020900	0.020500	0.020200	0.019800	0.019500	0.019200	0.018900	0.018700	0.018400	0.018200	0.018000	0.017900	0.017700	0.017500	0.017300	0.017200	0.017000	0.016900	0.016700	0.016600	0.016500	0.016300	0.016200	0.016100	0.016000	0.015900	0.015800
10.500000	0.039400	0.035100	0.032300	0.030100	0.028400	0.027100	0.025900	0.025000	0.024200	0.023500	0.022900	0.022400	0.021900	0.021500	0.021100	0.020700	0.020400	0.020100	0.019800	0.019500	0.019300	0.019000	0.018800	0.018600	0.018400	0.018200	0.018000	0.017800	0.017700	0.017500	0.017400	0.017300	0.017100	0.017000	0.016900	0.016800	0.016600	0.016500	0.016400
11.000000	0.041700	0.037200	0.034200	0.031800	0.030000	0.028600	0.027400	0.026400	0.025500	0.024700	0.024100	0.023500	0.023000	0.022500	0.022100	0.021700	0.021400	0.021000	0.020700	0.020400	0.020100	0.019900	0.019600	0.019400	0.019200	0.019000	0.018800	0.018700	0.018500	0.018300	0.018100	0.018000	0.017800	0.017700	0.017600	0.017400	0.017300	0.017200	0.017100
11.500000	0.044300	0.039400	0.036300	0.033800	0.031800	0.030300	0.029000	0.027800	0.026900	0.026100	0.025400	0.024700	0.024200	0.023700	0.023300	0.022800	0.022400	0.022000	0.021700	0.021400	0.021100	0.020900	0.020600	0.020400	0.020100	0.019900	0.019700	0.019500	0.019300	0.019100	0.019000	0.018800	0.018700	0.018500	0.018400	0.018200	0.018100	0.018000	0.017800
12.000000	0.047200	0.042000	0.038500	0.035900	0.033800	0.032100	0.030700	0.029500	0.028500	0.027600	0.026800	0.026200	0.025600	0.025000	0.024500	0.024000	0.023600	0.023200	0.022900	0.022600	0.022200	0.021900	0.021600	0.021400	0.021100	0.020900	0.020700	0.020500	0.020300	0.020100	0.019900	0.019700	0.019500	0.019300	0.019200	0.019100	0.018900	0.018800	0.018700
12.500000	0.050300	0.044800	0.041100	0.038300	0.036000	0.034200	0.032600	0.031400	0.030200	0.029300	0.028500	0.027800	0.027000	0.026500	0.025900	0.025500	0.025000	0.024500	0.024100	0.023700	0.023400	0.023100	0.022800	0.022600	0.022300	0.022000	0.021700	0.021500	0.021300	0.021100	0.020900	0.020700	0.020500	0.020400	0.020200	0.020100	0.019900	0.019800	0.019600
13.000000	0.053700	0.047700	0.043900	0.040800	0.038500	0.036400	0.034800	0.033400	0.032200	0.031200	0.030300	0.029400	0.028700	0.028100	0.027500	0.026900	0.026400	0.026000	0.025600	0.025200	0.024800	0.024500	0.024100	0.023700	0.023500	0.023200	0.023000	0.022700	0.022500	0.022300	0.022100	0.021900	0.021700	0.021400	0.021200	0.021000	0.020900	0.020700	0.020600
13.500000	0.057300	0.050900	0.046900	0.043700	0.041100	0.039000	0.037200	0.035600	0.034400	0.033200	0.032200	0.031400	0.030600	0.029900	0.029200	0.028600	0.028100	0.027600	0.027200	0.026700	0.026200	0.025900	0.025500	0.025200	0.024900	0.024600	0.024400	0.024100	0.023800	0.023500	0.023200	0.023000	0.022800	0.022700	0.022500	0.022300	0.022100	0.022000	0.021800
14.000000	0.061200	0.054400	0.050100	0.046800	0.044000	0.041700	0.039700	0.038200	0.036700	0.035500	0.034500	0.033500	0.032600	0.031800	0.031200	0.030500	0.029900	0.029300	0.028800	0.028400	0.028000	0.027600	0.027200	0.026800	0.026400	0.026000	0.025700	0.025500	0.025200	0.025000	0.024700	0.024500	0.024300	0.024000	0.023800	0.023600	0.023300	0.023100	0.022900
14.500000	0.065400	0.058100	0.053600	0.050000	0.047200	0.044600	0.042600	0.040800	0.039300	0.038100	0.036900	0.035700	0.034900	0.034100	0.033300	0.032500	0.031800	0.031300	0.030800	0.030300	0.029800	0.029300	0.028800	0.028400	0.028100	0.027800	0.027500	0.027200	0.026900	0.026600	0.026200	0.025900	0.025600	0.025400	0.025200	0.025000	0.024800	0.024600	0.024400
15.000000	0.069800	0.062000	0.057400	0.053600	0.050600	0.047800	0.045700	0.043700	0.042200	0.040800	0.039400	0.038400	0.037400	0.036400	0.035500	0.034800	0.034200	0.033500	0.032900	0.032200	0.031700	0.031300	0.030800	0.030400	0.030000	0.029600	0.029200	0.028800	0.028500	0.028200	0.027900	0.027700	0.027400	0.027200	0.026900	0.026700	0.026400	0.026200	0.025900
15.500000	0.074500	0.066100	0.061300	0.057500	0.054000	0.051400	0.048900	0.047000	0.045300	0.043600	0.042400	0.041200	0.039900	0.039000	0.038100	0.037400	0.036600	0.035700	0.035100	0.034600	0.034000	0.033500	0.033000	0.032500	0.031900	0.031500	0.031200	0.030800	0.030500	0.030200	0.029900	0.029500	0.029200	0.028800	0.028500	0.028300	0.028000	0.027800	0.027600
16.000000	0.079500	0.070500	0.065400	0.061500	0.058000	0.055100	0.052600	0.050500	0.048400	0.046900	0.045500	0.044000	0.042900	0.041900	0.041000	0.039900	0.039100	0.038400	0.037800	0.037100	0.036500	0.035700	0.035200	0.034700	0.034300	0.033900	0.033500	0.033100	0.032600	0.032100	0.031700	0.031400	0.031100	0.030800	0.030600	0.030300	0.030100	0.029800	0.029500
16.500000	0.084700	0.074900	0.069800	0.065600	0.062200	0.059000	0.056500	0.054000	0.052200	0.050500	0.048700	0.047400	0.046200	0.045000	0.043700	0.042900	0.042100	0.041300	0.040500	0.039600	0.039000	0.038400	0.037900	0.037400	0.036800	0.036300	0.035600	0.035200	0.034800	0.034400	0.034100	0.033800	0.033400	0.033100	0.032800	0.032400	0.032000	0.031600	0.031400
17.000000	0.089900	0.079700	0.074200	0.070200	0.066300	0.063300	0.060500	0.058100	0.056100	0.054000	0.052400	0.051000	0.049600	0.048200	0.047200	0.046200	0.045300	0.044100	0.043300	0.042600	0.042000	0.041400	0.040700	0.039900	0.039300	0.038800	0.038300	0.037900	0.037500	0.037100	0.036700	0.036200	0.035600	0.035200	0.034900	0.034600	0.034300	0.034000	0.033800
17.500000	0.095600	0.084600	0.079000	0.074800	0.070900	0.067800	0.064800	0.062500	0.060000	0.058100	0.056500	0.054800	0.053200	0.052000	0.050900	0.049600	0.048400	0.047500	0.046700	0.046000	0.045200	0.044200	0.043500	0.042900	0.042300	0.041800	0.041300	0.040800	0.040200	0.039500	0.039100	0.038700	0.038300	0.038000	0.037600	0.037300	0.037000	0.036600	0.036200
18.000000	0.101300	0.089500	0.083900	0.079400	0.075800	0.072200	0.069500	0.066800	0.064500	0.062600	0.060500	0.058700	0.057400	0.056000	0.054400	0.053200	0.052200	0.051300	0.050400	0.049200	0.048300	0.047600	0.046900	0.046300	0.045700	0.045000	0.044100	0.043500	0.043000	0.042600	0.042200	0.041800	0.041300	0.040900	0.040400	0.039800	0.039300	0.039000	0.038800
18.500000	0.107100	0.094700	0.088700	0.084500	0.080400	0.077300	0.074200	0.071400	0.069300	0.066900	0.064900	0.063300	0.061800	0.059800	0.058600	0.057500	0.056400	0.055100	0.053800	0.053000	0.052200	0.051400	0.050600	0.049700	0.048700	0.048100	0.047500	0.047000	0.046500	0.046000	0.045400	0.044800	0.044100	0.043700	0.043500	0.043300	0.043100	0.042900	0.042700
19.000000	0.113200	0.099700	0.093900	0.089200	0.085600	0.082200	0.079100	0.076600	0.073800	0.071600	0.069800	0.068000	0.065900	0.064500	0.063200	0.061900	0.060200	0.059100	0.058100	0.057200	0.056300	0.055200	0.054000	0.053300	0.052700	0.052000	0.051400	0.050800	0.050300	0.049700	0.049100	0.048800	0.048500	0.048300	0.048200	0.048000	0.047800	0.047600	0.047400
19.500000	0.119000	0.105100	0.098700	0.094500	0.090400	0.087300	0.084500	0.081300	0.079000	0.076900	0.074700	0.072500	0.070900	0.069500	0.067800	0.066000	0.064900	0.063800	0.062800	0.061600	0.060100	0.059200	0.058500	0.057800	0.057200	0.056700	0.056200	0.055800	0.055200	0.054700	0.054400	0.054100	0.053800	0.053600	0.053300	0.053000	0.052700	0.052400	0.052000
20.000000	0.125300	0.110100	0.104000	0.099300	0.095800	0.092700	0.089300	0.086800	0.084500	0.081700	0.079700	0.078000	0.076300	0.074000	0.072500	0.071200	0.070000	0.068800	0.066900	0.065900	0.065100	0.064500	0.063900	0.063400	0.063000	0.062600	0.062200	0.061700	0.060900	0.060400	0.060000	0.059600	0.059100	0.058600	0.058100	0.057600	0.057200	0.056700	0.056200
20.500000	0.117350	0.085550	0.085250	0.083350	0.084050	0.084350	0.083500	0.083550	0.083500	0.082450	0.082400	0.082550	0.082600	0.081750	0.081550	0.081350	0.081050	0.080550	0.079100	0.078550	0.078250	0.076750	0.076950	0.077200	0.077400	0.077600	0.077700	0.077450	0.076450	0.075700	0.076450	0.076500	0.076250	0.075950	0.075850	0.075500	0.075250	0.074950	0.074600
21.000000	0.109400	0.061000	0.066500	0.067400	0.072300	0.076000	0.077700	0.080300	0.082500	0.083200	0.085100	0.087100	0.088900	0.089500	0.090600	0.091500	0.092100	0.092300	0.091300	0.091200	0.091400	0.089000	0.090000	0.091000	0.091800	0.092600	0.093200	0.093200	0.092000	0.091000	0.092900	0.093400	0.093400	0.093300	0.093600	0.093400	0.093300	0.093200	0.093000
21.500000	0.127150	0.068800	0.076950	0.076000	0.081400	0.085400	0.087300	0.090100	0.092500	0.093300	0.095350	0.097500	0.099450	0.100100	0.101250	0.102250	0.102950	0.103150	0.102150	0.102050	0.102250	0.098350	0.099800	0.101150	0.102250	0.103300	0.104000	0.103950	0.102300	0.100800	0.103350	0.103950	0.103900	0.103600	0.104700	0.104550	0.104450	0.104350	0.104150
22.000000	0.144900	0.076600	0.087400	0.084600	0.090500	0.094800	0.096900	0.099900	0.102500	0.103400	0.105600	0.107900	0.110000	0.110700	0.111900	0.113000	0.113800	0.114000	0.113000	0.112900	0.113100	0.107700	0.109600	0.111300	0.112700	0.114000	0.114800	0.114700	0.112600	0.110600	0.113800	0.114500	0.114400	0.113900	0.115800	0.115700	0.115600	0.115500	0.115300
22.500000	0.162700	0.085950	0.099900	0.094750	0.101050	0.105650	0.107950	0.111100	0.113850	0.114900	0.117150	0.119600	0.121750	0.122550	0.123850	0.124950	0.125800	0.126050	0.125050	0.125000	0.125200	0.118200	0.120550	0.122650	0.124350	0.125850	0.126800	0.126600	0.124000	0.121550	0.125450	0.126200	0.126000	0.125350	0.128150	0.128050	0.127950	0.127850	0.127650
23.000000	0.180500	0.095300	0.112400	0.104900	0.111600	0.116500	0.119000	0.122300	0.125200	0.126400	0.128700	0.131300	0.133500	0.134400	0.135800	0.136900	0.137800	0.138100	0.137100	0.137100	0.137300	0.128700	0.131500	0.134000	0.136000	0.137700	0.138800	0.138500	0.135400	0.132500	0.137100	0.137900	0.137600	0.136800	0.140500	0.140400	0.140300	0.140200	0.140000
23.500000	0.197450	0.106200	0.126500	0.116500	0.123550	0.128650	0.131250	0.134700	0.137700	0.138950	0.141400	0.144000	0.146300	0.147250	0.148650	0.149850	0.150750	0.151050	0.150150	0.150150	0.150400	0.140150	0.143450	0.146300	0.148600	0.150550	0.151700	0.151350	0.147800	0.144450	0.149650	0.150550	0.150200	0.149200	0.153700	0.153650	0.153550	0.153450	0.153300
24.000000	0.214400	0.117100	0.140600	0.128100	0.135500	0.140800	0.143500	0.147100	0.150200	0.151500	0.154100	0.156700	0.159100	0.160100	0.161500	0.162800	0.163700	0.164000	0.163200	0.163200	0.163500	0.151600	0.155400	0.158600	0.161200	0.163400	0.164600	0.164200	0.160200	0.156400	0.162200	0.163200	0.162800	0.161600	0.166900	0.166900	0.166800	0.166700	0.166600
24.500000	0.230400	0.129350	0.155900	0.140950	0.148500	0.153950	0.156750	0.160450	0.163600	0.165000	0.167600	0.170250	0.172650	0.173700	0.175150	0.176450	0.177350	0.177700	0.176900	0.176950	0.177250	0.163900	0.168150	0.171700	0.174550	0.176900	0.178200	0.177750	0.173350	0.169150	0.175500	0.176550	0.176050	0.174700	0.180800	0.180800	0.180700	0.180650	0.180500
25.000000	0.246400	0.141600	0.171200	0.153800	0.161500	0.167100	0.170000	0.173800	0.177000	0.178500	0.181100	0.183800	0.186200	0.187300	0.188800	0.190100	0.191000	0.191400	0.190600	0.190700	0.191000	0.176200	0.180900	0.184800	0.187900	0.190400	0.191800	0.191300	0.186500	0.181900	0.188800	0.189900	0.189300	0.187800	0.194700	0.194700	0.194600	0.194600	0.194400
25.500000	0.261550	0.155000	0.187200	0.167600	0.175400	0.181050	0.184050	0.187850	0.191100	0.192600	0.195250	0.197950	0.200350	0.201450	0.202950	0.204250	0.205200	0.205600	0.204850	0.205000	0.205300	0.189200	0.194300	0.198500	0.201750	0.204450	0.205900	0.205350	0.200200	0.195250	0.202650	0.203800	0.203150	0.201500	0.209050	0.209050	0.208950	0.208950	0.208800
26.000000	0.276700	0.168400	0.203200	0.181400	0.189300	0.195000	0.198100	0.201900	0.205200	0.206700	0.209400	0.212100	0.214500	0.215600	0.217100	0.218400	0.219400	0.219800	0.219100	0.219300	0.219600	0.202200	0.207700	0.212200	0.215600	0.218500	0.220000	0.219400	0.213900	0.208600	0.216500	0.217700	0.217000	0.215200	0.223400	0.223400	0.223300	0.223300	0.223200
26.500000	0.291200	0.182750	0.219500	0.196000	0.203900	0.209600	0.212700	0.216500	0.219750	0.221300	0.223950	0.226650	0.229000	0.230150	0.231650	0.232900	0.233900	0.234300	0.233700	0.233850	0.234200	0.215800	0.221600	0.226300	0.229900	0.232900	0.234450	0.233800	0.228050	0.222500	0.230750	0.232000	0.231200	0.229350	0.238000	0.238000	0.237950	0.237950	0.237850
27.000000	0.305700	0.197100	0.235800	0.210600	0.218500	0.224200	0.227300	0.231100	0.234300	0.235900	0.238500	0.241200	0.243500	0.244700	0.246200	0.247400	0.248400	0.248800	0.248300	0.248400	0.248800	0.229400	0.235500	0.240400	0.244200	0.247300	0.248900	0.248200	0.242200	0.236400	0.245000	0.246300	0.245400	0.243500	0.252600	0.252600	0.252600	0.252600	0.252500
27.500000	0.319700	0.212100	0.252250	0.225700	0.233500	0.239150	0.242300	0.246000	0.249200	0.250800	0.253350	0.256000	0.258250	0.259450	0.260950	0.262150	0.263100	0.263550	0.263050	0.263200	0.263600	0.243400	0.249800	0.254850	0.258750	0.261950	0.263600	0.262800	0.256650	0.250600	0.259500	0.260800	0.259900	0.257900	0.267350	0.267350	0.267400	0.267400	0.267300
28.000000	0.333700	0.227100	0.268700	0.240800	0.248500	0.254100	0.257300	0.260900	0.264100	0.265700	0.268200	0.270800	0.273000	0.274200	0.275700	0.276900	0.277800	0.278300	0.277800	0.278000	0.278400	0.257400	0.264100	0.269300	0.273300	0.276600	0.278300	0.277400	0.271100	0.264800	0.274000	0.275300	0.274400	0.272300	0.282100	0.282100	0.282200	0.282200	0.282100
28.500000	0.347450	0.242650	0.285000	0.256300	0.263850	0.269350	0.272500	0.276050	0.279200	0.280800	0.283250	0.285750	0.287950	0.289100	0.290550	0.291750	0.292650	0.293100	0.292700	0.292900	0.293250	0.271750	0.278650	0.284000	0.288050	0.291350	0.293050	0.292150	0.285750	0.279300	0.288700	0.290000	0.289050	0.286900	0.296950	0.296950	0.297050	0.297050	0.296950
29.000000	0.361200	0.258200	0.301300	0.271800	0.279200	0.284600	0.287700	0.291200	0.294300	0.295900	0.298300	0.300700	0.302900	0.304000	0.305400	0.306600	0.307500	0.307900	0.307600	0.307800	0.308100	0.286100	0.293200	0.298700	0.302800	0.306100	0.307800	0.306900	0.300400	0.293800	0.303400	0.304700	0.303700	0.301500	0.311800	0.311800	0.311900	0.311900	0.311800
29.500000	0.374750	0.274050	0.317500	0.287500	0.294750	0.300000	0.303050	0.306500	0.309500	0.311100	0.313400	0.315750	0.317900	0.319000	0.320350	0.321500	0.322400	0.322800	0.322550	0.322750	0.323050	0.300700	0.307950	0.313500	0.317650	0.320950	0.322650	0.321750	0.315200	0.308550	0.318200	0.319500	0.318500	0.316250	0.326700	0.326700	0.326800	0.326800	0.326750
30.000000	0.388300	0.289900	0.333700	0.303200	0.310300	0.315400	0.318400	0.321800	0.324700	0.326300	0.328500	0.330800	0.332900	0.334000	0.335300	0.336400	0.337300	0.337700	0.337500	0.337700	0.338000	0.315300	0.322700	0.328300	0.332500	0.335800	0.337500	0.336600	0.330000	0.323300	0.333000	0.334300	0.333300	0.331000	0.341600	0.341600	0.341700	0.341700	0.341700
31.000000	0.415200	0.322100	0.365600	0.334900	0.341600	0.346500	0.349300	0.352500	0.355200	0.356800	0.358900	0.361000	0.362900	0.364000	0.365300	0.366300	0.367100	0.367600	0.367400	0.367600	0.367900	0.344900	0.352400	0.358100	0.362300	0.365600	0.367300	0.366400	0.359700	0.353000	0.362800	0.364000	0.363000	0.360700	0.371300	0.371400	0.371400	0.371500	0.371500
32.000000	0.442100	0.354400	0.397100	0.366800	0.373000	0.377500	0.380300	0.383200	0.385800	0.387300	0.389300	0.391300	0.393000	0.394100	0.395200	0.396200	0.397000	0.397400	0.397300	0.397500	0.397900	0.374800	0.382400	0.388100	0.392200	0.395500	0.397100	0.396200	0.389600	0.382800	0.392600	0.393800	0.392800	0.390500	0.401100	0.401100	0.401200	0.401200	0.401200
33.000000	0.469000	0.386900	0.428300	0.398600	0.404400	0.408600	0.411200	0.414000	0.416400	0.417800	0.419600	0.421500	0.423100	0.424100	0.425200	0.426100	0.426800	0.427300	0.427200	0.427400	0.427700	0.404900	0.412500	0.418100	0.422200	0.425300	0.426900	0.426000	0.419600	0.412900	0.422500	0.423700	0.422600	0.420400	0.430800	0.430800	0.430900	0.430900	0.431000
34.000000	0.496000	0.419300	0.459200	0.430400	0.435700	0.439700	0.442100	0.444700	0.446900	0.448300	0.450000	0.451700	0.453200	0.454200	0.455200	0.456000	0.456700	0.457100	0.457100	0.457300	0.457600	0.435200	0.442700	0.448200	0.452100	0.455200	0.456700	0.455900	0.449600	0.443000	0.452400	0.453500	0.452500	0.450300	0.460500	0.460500	0.460600	0.460600	0.460700
35.000000	0.523200	0.451600	0.489800	0.462100	0.467000	0.470700	0.473000	0.475300	0.477400	0.478700	0.480300	0.481900	0.483300	0.484200	0.485100	0.485900	0.486500	0.486900	0.486900	0.487100	0.487400	0.465600	0.472900	0.478300	0.482100	0.485100	0.486500	0.485700	0.479600	0.473200	0.482300	0.483400	0.482400	0.480300	0.490100	0.490200	0.490200	0.490300	0.490300
36.000000	0.550500	0.483800	0.520200	0.493600	0.498200	0.501600	0.503700	0.505900	0.507800	0.509000	0.510500	0.512000	0.513300	0.514100	0.515000	0.515800	0.516300	0.516700	0.516700	0.517000	0.517200	0.496000	0.503200	0.508400	0.512100	0.514900	0.516300	0.515500	0.509600	0.503400	0.512300	0.513300	0.512300	0.510200	0.519800	0.519800	0.519900	0.519900	0.520000
37.000000	0.577900	0.515900	0.550400	0.525100	0.529300	0.532400	0.534400	0.536400	0.538200	0.539400	0.540700	0.542100	0.543300	0.544100	0.544900	0.545600	0.546100	0.546500	0.546500	0.546700	0.547000	0.526400	0.533400	0.538500	0.542000	0.544700	0.546100	0.545300	0.539700	0.533600	0.542200	0.543200	0.542200	0.540200	0.549400	0.549400	0.549500	0.549600	0.549600
38.000000	0.605500	0.547800	0.580400	0.556400	0.560200	0.563100	0.565000	0.566900	0.568500	0.569600	0.570900	0.572100	0.573200	0.574000	0.574700	0.575400	0.575900	0.576200	0.576300	0.576500	0.576700	0.556900	0.563700	0.568600	0.572000	0.574600	0.575800	0.575100	0.569700	0.563900	0.572100	0.573000	0.572100	0.570200	0.579000	0.579000	0.579100	0.579100	0.579200
39.000000	0.633200	0.579500	0.610300	0.587500	0.591100	0.593700	0.595500	0.597300	0.598800	0.599800	0.601000	0.602100	0.603100	0.603900	0.604600	0.605200	0.605600	0.605900	0.606000	0.606200	0.606500	0.587400	0.593900	0.598600	0.601900	0.604300	0.605500	0.604800	0.599700	0.594100	0.602000	0.602900	0.602000	0.600100	0.608500	0.608600	0.608700	0.608700	0.608800
40.000000	0.661000	0.611100	0.640100	0.618500	0.621800	0.624300	0.625900	0.627500	0.628900	0.629900	0.631000	0.632100	0.633000	0.633700	0.634300	0.634900	0.635300	0.635600	0.635700	0.635900	0.636100	0.617800	0.624200	0.628600	0.631700	0.634100	0.635200	0.634500	0.629600	0.624300	0.631800	0.632700	0.631800	0.630000	0.638100	0.638100	0.638200	0.638300	0.638300
41.000000	0.689000	0.642500	0.669800	0.649400	0.652400	0.654700	0.656200	0.657700	0.659000	0.659900	0.661000	0.661900	0.662800	0.663500	0.664100	0.664600	0.665000	0.665300	0.665400	0.665600	0.665800	0.648200	0.654300	0.658600	0.661600	0.663800	0.664900	0.664200	0.659500	0.654400	0.661600	0.662400	0.661600	0.659900	0.667600	0.667600	0.667700	0.667800	0.667800
42.000000	0.717000	0.673600	0.699400	0.680100	0.682900	0.685000	0.686500	0.687800	0.689000	0.689900	0.690800	0.691700	0.692600	0.693200	0.693700	0.694200	0.694600	0.694900	0.695000	0.695100	0.695300	0.678500	0.684400	0.688500	0.691300	0.693500	0.694500	0.693800	0.689400	0.684500	0.691400	0.692100	0.691300	0.689700	0.697000	0.697100	0.697200	0.697200	0.697300
43.000000	0.745000	0.704600	0.728900	0.710700	0.713200	0.715200	0.716500	0.717800	0.718900	0.719800	0.720600	0.721500	0.722200	0.722800	0.723300	0.723800	0.724100	0.724400	0.724500	0.724700	0.724800	0.708800	0.714400	0.718300	0.721000	0.723000	0.724000	0.723400	0.719200	0.714500	0.721100	0.721800	0.721000	0.719500	0.726400	0.726500	0.726600	0.726600	0.726600
44.000000	0.773100	0.735400	0.758300	0.741100	0.743400	0.745200	0.746500	0.747700	0.748700	0.749500	0.750300	0.751100	0.751800	0.752300	0.752800	0.753200	0.753600	0.753800	0.753900	0.754100	0.754300	0.738900	0.744300	0.748100	0.750600	0.752500	0.753400	0.752900	0.748800	0.744400	0.750600	0.751300	0.750600	0.749100	0.755800	0.755800	0.755900	0.755900	0.756000
45.000000	0.801200	0.766000	0.787500	0.771300	0.773500	0.775100	0.776300	0.777400	0.778400	0.779100	0.779900	0.780600	0.781200	0.781800	0.782200	0.782600	0.782900	0.783100	0.783300	0.783400	0.783600	0.768900	0.774100	0.777700	0.780100	0.781900	0.782800	0.782200	0.778400	0.774100	0.780100	0.780800	0.780100	0.778700	0.785000	0.785000	0.785100	0.785100	0.785200
46.000000	0.829300	0.796400	0.816600	0.801300	0.803300	0.804900	0.806000	0.807000	0.807900	0.808600	0.809300	0.810000	0.810600	0.811000	0.811500	0.811800	0.812100	0.812400	0.812500	0.812600	0.812800	0.798800	0.803700	0.807200	0.809500	0.811200	0.812000	0.811500	0.807800	0.803800	0.809500	0.810100	0.809400	0.808100	0.814100	0.814100	0.814200	0.814200	0.814300
47.000000	0.857300	0.826500	0.845500	0.831100	0.833000	0.834400	0.835500	0.836400	0.837200	0.837900	0.838500	0.839200	0.839700	0.840200	0.840600	0.840900	0.841200	0.841400	0.841500	0.841700	0.841800	0.828500	0.833200	0.836500	0.838700	0.840300	0.841100	0.840600	0.837100	0.833200	0.838700	0.839200	0.838600	0.837300	0.843100	0.843100	0.843200	0.843200	0.843200
48.000000	0.885200	0.856400	0.874300	0.860700	0.862400	0.863700	0.864700	0.865600	0.866400	0.867000	0.867600	0.868200	0.868700	0.869200	0.869500	0.869800	0.870100	0.870300	0.870400	0.870600	0.870700	0.858000	0.862500	0.865600	0.867700	0.869200	0.870000	0.869500	0.866200	0.862500	0.867700	0.868200	0.867600	0.866400	0.871900	0.871900	0.872000	0.872000	0.872000
49.000000	0.913000	0.886000	0.902900	0.890000	0.891600	0.892900	0.893800	0.894600	0.895300	0.895900	0.896500	0.897000	0.897500	0.897900	0.898300	0.898600	0.898800	0.899000	0.899100	0.899200	0.899400	0.887200	0.891600	0.894500	0.896500	0.898000	0.898700	0.898300	0.895100	0.891600	0.896500	0.897000	0.896500	0.895300	0.900500	0.900500	0.900600	0.900600	0.900600
50.000000	0.940700	0.915300	0.931200	0.919100	0.920600	0.921700	0.922600	0.923400	0.924100	0.924600	0.925100	0.925600	0.926100	0.926500	0.926800	0.927100	0.927300	0.927500	0.927600	0.927700	0.927800	0.916300	0.920400	0.923200	0.925100	0.926500	0.927200	0.926800	0.923800	0.920400	0.925100	0.925600	0.925100	0.924000	0.928900	0.928900	0.929000	0.929000	0.929000
51.000000	0.968100	0.944300	0.959300	0.947800	0.949200	0.950300	0.951100	0.951900	0.952500	0.953000	0.953500	0.954000	0.954400	0.954800	0.955100	0.955300	0.955600	0.955700	0.955800	0.956000	0.956100	0.945000	0.949000	0.951700	0.953500	0.954800	0.955400	0.955000	0.952200	0.949000	0.953500	0.953900	0.953400	0.952400	0.957100	0.957100	0.957100	0.957200	0.957200
52.000000	0.995400	0.973000	0.987200	0.976300	0.977600	0.978600	0.979400	0.980100	0.980700	0.981100	0.981600	0.982100	0.982500	0.982800	0.983100	0.983300	0.983500	0.983700	0.983800	0.983900	0.984000	0.973500	0.977300	0.979900	0.981600	0.982800	0.983400	0.983000	0.980300	0.977300	0.981500	0.982000	0.981500	0.980500	0.985000	0.985000	0.985000	0.985100	0.985100
53.000000	1.022400	1.001300	1.014700	1.004400	1.005600	1.006600	1.007300	1.008000	1.008500	1.009000	1.009400	1.009800	1.010200	1.010500	1.010800	1.011000	1.011200	1.011400	1.011500	1.011600	1.011700	1.001700	1.005300	1.007700	1.009300	1.010500	1.011100	1.010700	1.008200	1.005200	1.009300	1.009700	1.009300	1.008300	1.012600	1.012600	1.012600	1.012700	1.012700
54.000000	1.049100	1.029300	1.042000	1.032200	1.033300	1.034200	1.034900	1.035500	1.036000	1.036500	1.036900	1.037300	1.037600	1.037900	1.038200	1.038400	1.038600	1.038700	1.038800	1.038900	1.039000	1.029500	1.032900	1.035200	1.036800	1.037900	1.038500	1.038100	1.035700	1.032900	1.036800	1.037200	1.036700	1.035800	1.039900	1.039900	1.039900	1.040000	1.040000
55.000000	1.075500	1.056800	1.068800	1.059600	1.060600	1.061500	1.062100	1.062700	1.063200	1.063600	1.064000	1.064400	1.064700	1.065000	1.065200	1.065400	1.065600	1.065700	1.065800	1.065900	1.066000	1.056900	1.060200	1.062400	1.063900	1.065000	1.065500	1.065200	1.062800	1.060200	1.063900	1.064200	1.063800	1.062900	1.066800	1.066800	1.066900	1.066900	1.066900
56.000000	1.101600	1.084000	1.095300	1.086600	1.087600	1.088300	1.089000	1.089500	1.090000	1.090300	1.090700	1.091000	1.091400	1.091600	1.091900	1.092100	1.092200	1.092300	1.092400	1.092500	1.092600	1.083900	1.087100	1.089200	1.090600	1.091600	1.092100	1.091800	1.089600	1.087000	1.090600	1.090900	1.090500	1.089700	1.093400	1.093400	1.093400	1.093500	1.093500
57.000000	1.127300	1.110700	1.121400	1.113100	1.114100	1.114800	1.115400	1.115900	1.116300	1.116700	1.117000	1.117300	1.117600	1.117900	1.118100	1.118300	1.118400	1.118600	1.118700	1.118700	1.118800	1.110500	1.113500	1.115600	1.116900	1.117900	1.118300	1.118000	1.115900	1.113500	1.116900	1.117200	1.116800	1.116000	1.119500	1.119600	1.119600	1.119600	1.119600
58.000000	1.152600	1.136900	1.147100	1.139200	1.140100	1.140800	1.141300	1.141800	1.142200	1.142600	1.142900	1.143200	1.143500	1.143700	1.143900	1.144100	1.144200	1.144300	1.144400	1.144500	1.144600	1.136700	1.139500	1.141500	1.142800	1.143700	1.144100	1.143800	1.141800	1.139500	1.142700	1.143000	1.142700	1.141900	1.145300	1.145300	1.145300	1.145300	1.145400
59.000000	1.177500	1.162700	1.172300	1.164800	1.165700	1.166300	1.166800	1.167300	1.167600	1.168000	1.168300	1.168600	1.168800	1.169100	1.169200	1.169400	1.169500	1.169700	1.169700	1.169800	1.169900	1.162300	1.165100	1.166900	1.168100	1.169000	1.169500	1.169200	1.167300	1.165100	1.168100	1.168400	1.168100	1.167400	1.170500	1.170600	1.170600	1.170600	1.170600
60.000000	1.201900	1.187900	1.197000	1.189900	1.190700	1.191300	1.191800	1.192200	1.192600	1.192900	1.193200	1.193500	1.193700	1.193900	1.194100	1.194300	1.194400	1.194500	1.194600	1.194600	1.194700	1.187500	1.190100	1.191900	1.193000	1.193900	1.194300	1.194000	1.192200	1.190100	1.193000	1.193300	1.193000	1.192300	1.195300	1.195300	1.195400	1.195400	1.195400
61.000000	1.225800	1.212600	1.221200	1.214500	1.215200	1.215800	1.216300	1.216700	1.217000	1.217300	1.217600	1.217800	1.218100	1.218300	1.218400	1.218600	1.218700	1.218800	1.218900	1.219000	1.219000	1.212100	1.214600	1.216300	1.217400	1.218200	1.218600	1.218400	1.216600	1.214600	1.217400	1.217700	1.217400	1.216700	1.219600	1.219600	1.219600	1.219700	1.219700
62.000000	1.249200	1.236700	1.244900	1.238500	1.239200	1.239700	1.240200	1.240500	1.240900	1.241100	1.241400	1.241600	1.241900	1.242100	1.242200	1.242400	1.242500	1.242600	1.242600	1.242700	1.242800	1.236200	1.238600	1.240200	1.241300	1.242000	1.242400	1.242200	1.240500	1.238600	1.241200	1.241500	1.241200	1.240600	1.243300	1.243300	1.243400	1.243400	1.243400
63.000000	1.272100	1.260200	1.268000	1.261900	1.262600	1.263100	1.263500	1.263800	1.264200	1.264400	1.264700	1.264900	1.265100	1.265300	1.265400	1.265600	1.265700	1.265800	1.265800	1.265900	1.266000	1.259700	1.262000	1.263500	1.264500	1.265300	1.265600	1.265400	1.263800	1.262000	1.264500	1.264700	1.264500	1.263900	1.266500	1.266500	1.266500	1.266500	1.266600
64.000000	1.294400	1.283100	1.290500	1.284800	1.285400	1.285800	1.286200	1.286600	1.286800	1.287100	1.287300	1.287500	1.287700	1.287900	1.288100	1.288200	1.288300	1.288400	1.288400	1.288500	1.288600	1.282600	1.284800	1.286200	1.287200	1.287900	1.288200	1.288000	1.286500	1.284700	1.287200	1.287400	1.287100	1.286500	1.289000	1.289100	1.289100	1.289100	1.289100
65.000000	1.316000	1.305400	1.312400	1.306900	1.307500	1.308000	1.308300	1.308600	1.308900	1.309100	1.309400	1.309600	1.309800	1.309900	1.310100	1.310200	1.310300	1.310400	1.310400	1.310500	1.310500	1.304800	1.306900	1.308300	1.309200	1.309900	1.310200	1.310000	1.308600	1.306900	1.309200	1.309400	1.309200	1.308600	1.311000	1.311000	1.311000	1.311100	1.311100
66.000000	1.337100	1.327000	1.333700	1.328500	1.329000	1.329400	1.329800	1.330100	1.330300	1.330600	1.330800	1.330900	1.331100	1.331300	1.331400	1.331500	1.331600	1.331700	1.331800	1.331800	1.331900	1.326400	1.328400	1.329700	1.330600	1.331300	1.331500	1.331400	1.330000	1.328400	1.330600	1.330800	1.330600	1.330000	1.332300	1.332300	1.332400	1.332400	1.332400
67.000000	1.357500	1.347900	1.354200	1.349300	1.349800	1.350200	1.350500	1.350800	1.351100	1.351300	1.351500	1.351700	1.351800	1.352000	1.352100	1.352200	1.352300	1.352400	1.352400	1.352500	1.352500	1.347300	1.349200	1.350500	1.351300	1.351900	1.352200	1.352000	1.350700	1.349200	1.351300	1.351500	1.351300	1.350800	1.353000	1.353000	1.353000	1.353000	1.353000
68.000000	1.377200	1.368100	1.374100	1.369400	1.369900	1.370300	1.370600	1.370900	1.371100	1.371300	1.371500	1.371700	1.371800	1.372000	1.372100	1.372200	1.372300	1.372300	1.372400	1.372500	1.372500	1.367500	1.369300	1.370600	1.371400	1.371900	1.372200	1.372000	1.370800	1.369300	1.371300	1.371500	1.371300	1.370800	1.372900	1.372900	1.372900	1.373000	1.373000
69.000000	1.396200	1.387600	1.393300	1.388900	1.389300	1.389700	1.390000	1.390200	1.390400	1.390600	1.390800	1.391000	1.391100	1.391300	1.391400	1.391500	1.391500	1.391600	1.391700	1.391700	1.391800	1.387000	1.388700	1.389900	1.390700	1.391200	1.391500	1.391300	1.390100	1.388700	1.390600	1.390800	1.390600	1.390200	1.392100	1.392200	1.392200	1.392200	1.392200
70.000000	1.414500	1.406400	1.411800	1.407500	1.407900	1.408300	1.408600	1.408800	1.409000	1.409200	1.409400	1.409500	1.409700	1.409800	1.409900	1.410000	1.410100	1.410100	1.410200	1.410200	1.410300	1.405700	1.407400	1.408500	1.409200	1.409800	1.410000	1.409800	1.408700	1.407400	1.409200	1.409400	1.409200	1.408700	1.410600	1.410700	1.410700	1.410700	1.410700
71.000000	1.432100	1.424300	1.429500	1.425400	1.425800	1.426100	1.426400	1.426600	1.426800	1.427000	1.427200	1.427300	1.427500	1.427600	1.427700	1.427800	1.427800	1.427900	1.428000	1.428000	1.428000	1.423700	1.425300	1.426400	1.427000	1.427500	1.427800	1.427600	1.426500	1.425300	1.427000	1.427200	1.427000	1.426600	1.428400	1.428400	1.428400	1.428400	1.428400
72.000000	1.448900	1.441500	1.446400	1.442500	1.442900	1.443200	1.443500	1.443700	1.443900	1.444000	1.444200	1.444300	1.444500	1.444600	1.444700	1.444800	1.444800	1.444900	1.444900	1.445000	1.445000	1.440800	1.442400	1.443400	1.444100	1.444500	1.444800	1.444600	1.443600	1.442400	1.444000	1.444200	1.444000	1.443600	1.445300	1.445400	1.445400	1.445400	1.445400
73.000000	1.464900	1.457800	1.462500	1.458900	1.459200	1.459500	1.459700	1.459900	1.460100	1.460300	1.460400	1.460500	1.460700	1.460800	1.460900	1.461000	1.461000	1.461100	1.461100	1.461200	1.461200	1.457200	1.458700	1.459700	1.460300	1.460800	1.461000	1.460800	1.459800	1.458700	1.460300	1.460400	1.460200	1.459900	1.461500	1.461500	1.461500	1.461600	1.461600
74.000000	1.480000	1.473400	1.477800	1.474300	1.474700	1.474900	1.475200	1.475400	1.475500	1.475700	1.475800	1.475900	1.476100	1.476200	1.476300	1.476300	1.476400	1.476400	1.476500	1.476500	1.476600	1.472700	1.474200	1.475100	1.475700	1.476100	1.476300	1.476200	1.475300	1.474100	1.475700	1.475800	1.475600	1.475300	1.476900	1.476900	1.476900	1.476900	1.476900
75.000000	1.494400	1.488100	1.492300	1.489000	1.489300	1.489600	1.489800	1.490000	1.490100	1.490300	1.490400	1.490500	1.490600	1.490700	1.490800	1.490900	1.490900	1.491000	1.491000	1.491100	1.491100	1.487400	1.488800	1.489700	1.490300	1.490700	1.490900	1.490700	1.489800	1.488800	1.490200	1.490400	1.490200	1.489900	1.491400	1.491400	1.491400	1.491400	1.491400
76.000000	1.507900	1.501900	1.505900	1.502800	1.503100	1.503300	1.503500	1.503700	1.503800	1.504000	1.504100	1.504200	1.504300	1.504400	1.504500	1.504600	1.504600	1.504700	1.504700	1.504700	1.504800	1.501300	1.502600	1.503400	1.504000	1.504400	1.504600	1.504400	1.503600	1.502600	1.504000	1.504100	1.503900	1.503600	1.505000	1.505100	1.505100	1.505100	1.505100
77.000000	1.520600	1.514900	1.518700	1.515700	1.516000	1.516200	1.516400	1.516500	1.516700	1.516800	1.516900	1.517000	1.517100	1.517200	1.517300	1.517400	1.517400	1.517500	1.517500	1.517600	1.517600	1.514200	1.515500	1.516300	1.516800	1.517200	1.517400	1.517300	1.516400	1.515500	1.516800	1.516900	1.516800	1.516500	1.517800	1.517900	1.517900	1.517900	1.517900
78.000000	1.532400	1.526900	1.530600	1.527700	1.528000	1.528200	1.528400	1.528500	1.528700	1.528800	1.528900	1.529000	1.529100	1.529200	1.529300	1.529300	1.529400	1.529400	1.529500	1.529500	1.529500	1.526300	1.527500	1.528300	1.528800	1.529200	1.529300	1.529200	1.528400	1.527500	1.528800	1.528900	1.528700	1.528400	1.529800	1.529800	1.529800	1.529800	1.529800
79.000000	1.543300	1.538100	1.541600	1.538800	1.539100	1.539300	1.539500	1.539600	1.539700	1.539900	1.540000	1.540100	1.540100	1.540200	1.540300	1.540400	1.540400	1.540400	1.540500	1.540500	1.540500	1.537500	1.538600	1.539400	1.539900	1.540200	1.540400	1.540300	1.539500	1.538600	1.539800	1.540000	1.539800	1.539500	1.540800	1.540800	1.540800	1.540800	1.540800
80.000000	1.553300	1.548300	1.551600	1.549000	1.549300	1.549500	1.549600	1.549800	1.549900	1.550000	1.550100	1.550200	1.550300	1.550400	1.550400	1.550500	1.550500	1.550600	1.550600	1.550600	1.550700	1.547800	1.548800	1.549600	1.550000	1.550300	1.550500	1.550400	1.549700	1.548800	1.550000	1.550100	1.550000	1.549700	1.550900	1.550900	1.550900	1.550900	1.550900
81.000000	1.562300	1.557600	1.560800	1.558300	1.558500	1.558700	1.558900	1.559000	1.559100	1.559200	1.559300	1.559400	1.559500	1.559600	1.559600	1.559700	1.559700	1.559800	1.559800	1.559800	1.559900	1.557100	1.558100	1.558800	1.559200	1.559600	1.559700	1.559600	1.558900	1.558100	1.559200	1.559300	1.559200	1.558900	1.560100	1.560100	1.560100	1.560100	1.560100
82.000000	1.570500	1.566000	1.569000	1.566700	1.566900	1.567100	1.567200	1.567300	1.567400	1.567600	1.567600	1.567700	1.567800	1.567900	1.567900	1.568000	1.568000	1.568100	1.568100	1.568100	1.568100	1.565500	1.566500	1.567100	1.567500	1.567800	1.568000	1.567900	1.567200	1.566500	1.567500	1.567600	1.567500	1.567200	1.568300	1.568400	1.568400	1.568400	1.568400
83.000000	1.577700	1.573500	1.576300	1.574100	1.574300	1.574400	1.574600	1.574700	1.574800	1.574900	1.575000	1.575100	1.575100	1.575200	1.575300	1.575300	1.575400	1.575400	1.575400	1.575500	1.575500	1.572900	1.573900	1.574500	1.574900	1.575200	1.575300	1.575200	1.574600	1.573900	1.574900	1.575000	1.574900	1.574600	1.575700	1.575700	1.575700	1.575700	1.575700
84.000000	1.584000	1.579900	1.582700	1.580500	1.580700	1.580900	1.581000	1.581100	1.581200	1.581300	1.581400	1.581500	1.581500	1.581600	1.581700	1.581700	1.581700	1.581800	1.581800	1.581800	1.581900	1.579400	1.580300	1.580900	1.581300	1.581600	1.581700	1.581600	1.581000	1.580300	1.581300	1.581400	1.581300	1.581000	1.582000	1.582000	1.582100	1.582100	1.582100
85.000000	1.589300	1.585500	1.588100	1.586000	1.586200	1.586300	1.586500	1.586600	1.586700	1.586800	1.586800	1.586900	1.587000	1.587000	1.587100	1.587100	1.587200	1.587200	1.587200	1.587300	1.587300	1.585000	1.585800	1.586400	1.586800	1.587000	1.587100	1.587100	1.586500	1.585800	1.586700	1.586800	1.586700	1.586500	1.587500	1.587500	1.587500	1.587500	1.587500
86.000000	1.593700	1.590000	1.592500	1.590500	1.590700	1.590800	1.591000	1.591100	1.591200	1.591300	1.591300	1.591400	1.591500	1.591500	1.591600	1.591600	1.591600	1.591700	1.591700	1.591700	1.591700	1.589500	1.590400	1.590900	1.591200	1.591500	1.591600	1.591500	1.591000	1.590300	1.591200	1.591300	1.591200	1.591000	1.591900	1.591900	1.591900	1.591900	1.591900
87.000000	1.597100	1.593600	1.595900	1.594100	1.594200	1.594400	1.594500	1.594600	1.594700	1.594800	1.594800	1.594900	1.595000	1.595000	1.595100	1.595100	1.595100	1.595200	1.595200	1.595200	1.595200	1.593100	1.593900	1.594400	1.594800	1.595000	1.595100	1.595000	1.594500	1.593900	1.594700	1.594800	1.594700	1.594500	1.595400	1.595400	1.595400	1.595400	1.595400
88.000000	1.599500	1.596200	1.598400	1.596700	1.596800	1.596900	1.597100	1.597200	1.597200	1.597300	1.597400	1.597400	1.597500	1.597600	1.597600	1.597600	1.597700	1.597700	1.597700	1.597700	1.597800	1.595700	1.596500	1.597000	1.597300	1.597500	1.597600	1.597600	1.597100	1.596500	1.597300	1.597400	1.597300	1.597100	1.597900	1.597900	1.597900	1.597900	1.597900
89.000000	1.601000	1.597800	1.600000	1.598300	1.598400	1.598500	1.598600	1.598700	1.598800	1.598900	1.598900	1.599000	1.599100	1.599100	1.599200	1.599200	1.599200	1.599200	1.599300	1.599300	1.599300	1.597400	1.598100	1.598600	1.598900	1.599100	1.599200	1.599100	1.598600	1.598100	1.598900	1.598900	1.598800	1.598700	1.599500	1.599500	1.599500	1.599500	1.599500
90.000000	1.601500	1.598500	1.600500	1.598900	1.599000	1.599100	1.599300	1.599300	1.599400	1.599500	1.599500	1.599600	1.599600	1.599700	1.599700	1.599800	1.599800	1.599800	1.599800	1.599900	1.599900	1.598000	1.598700	1.599200	1.599500	1.599700	1.599800	1.599700	1.599200	1.598700	1.599400	1.599500	1.599400	1.599300	1.600000	1.600000	1.600000	1.600000	1.600000
91.000000	1.601000	1.598100	1.600100	1.598500	1.598700	1.598800	1.598900	1.599000	1.599000	1.599100	1.599200	1.599200	1.599300	1.599300	1.599300	1.599400	1.599400	1.599400	1.599400	1.599500	1.599500	1.597700	1.598400	1.598800	1.599100	1.599300	1.599400	1.599300	1.598900	1.598400	1.599100	1.599100	1.599100	1.598900	1.599600	1.599600	1.599600	1.599600	1.599600
92.000000	1.599500	1.596800	1.598700	1.597200	1.597300	1.597400	1.597500	1.597600	1.597700	1.597700	1.597800	1.597800	1.597900	1.597900	1.598000	1.598000	1.598000	1.598000	1.598100	1.598100	1.598100	1.596400	1.597000	1.597500	1.597700	1.597900	1.598000	1.597900	1.597500	1.597000	1.597700	1.597800	1.597700	1.597500	1.598200	1.598200	1.598200	1.598200	1.598200
93.000000	1.597100	1.594500	1.596300	1.594900	1.595000	1.595100	1.595200	1.595300	1.595300	1.595400	1.595500	1.595500	1.595500	1.595600	1.595600	1.595600	1.595700	1.595700	1.595700	1.595700	1.595700	1.594100	1.594700	1.595100	1.595400	1.595600	1.595600	1.595600	1.595200	1.594700	1.595400	1.595400	1.595400	1.595200	1.595900	1.595900	1.595900	1.595900	1.595900
94.000000	1.593700	1.591300	1.592900	1.591600	1.591700	1.591800	1.591900	1.592000	1.592000	1.592100	1.592100	1.592200	1.592200	1.592300	1.592300	1.592300	1.592400	1.592400	1.592400	1.592400	1.592400	1.590900	1.591500	1.591800	1.592100	1.592300	1.592300	1.592300	1.591900	1.591400	1.592100	1.592100	1.592100	1.591900	1.592500	1.592500	1.592500	1.592600	1.592600
95.000000	1.589400	1.587000	1.588600	1.587400	1.587500	1.587600	1.587600	1.587700	1.587800	1.587800	1.587900	1.587900	1.588000	1.588000	1.588000	1.588000	1.588100	1.588100	1.588100	1.588100	1.588100	1.586700	1.587200	1.587600	1.587800	1.588000	1.588000	1.588000	1.587600	1.587200	1.587800	1.587900	1.587800	1.587600	1.588200	1.588300	1.588300	1.588300	1.588300
96.000000	1.584100	1.581800	1.583400	1.582200	1.582300	1.582300	1.582400	1.582500	1.582500	1.582600	1.582600	1.582700	1.582700	1.582800	1.582800	1.582800	1.582800	1.582800	1.582900	1.582900	1.582900	1.581500	1.582000	1.582400	1.582600	1.582700	1.582800	1.582800	1.582400	1.582000	1.582600	1.582600	1.582600	1.582400	1.583000	1.583000	1.583000	1.583000	1.583000
97.000000	1.577800	1.575700	1.577100	1.576000	1.576100	1.576200	1.576200	1.576300	1.576400	1.576400	1.576400	1.576500	1.576500	1.576600	1.576600	1.576600	1.576600	1.576600	1.576700	1.576700	1.576700	1.575300	1.575900	1.576200	1.576400	1.576500	1.576600	1.576600	1.576200	1.575800	1.576400	1.576400	1.576400	1.576200	1.576800	1.576800	1.576800	1.576800	1.576800
98.000000	1.570600	1.568600	1.570000	1.568900	1.569000	1.569000	1.569100	1.569200	1.569200	1.569300	1.569300	1.569300	1.569400	1.569400	1.569400	1.569500	1.569500	1.569500	1.569500	1.569500	1.569500	1.568300	1.568700	1.569100	1.569300	1.569400	1.569500	1.569400	1.569100	1.568700	1.569200	1.569300	1.569200	1.569100	1.569600	1.569600	1.569600	1.569600	1.569700
99.000000	1.562500	1.560600	1.561900	1.560800	1.560900	1.561000	1.561100	1.561100	1.561200	1.561200	1.561200	1.561300	1.561300	1.561300	1.561400	1.561400	1.561400	1.561400	1.561400	1.561400	1.561500	1.560200	1.560700	1.561000	1.561200	1.561300	1.561400	1.561300	1.561000	1.560700	1.561200	1.561200	1.561200	1.561000	1.561500	1.561500	1.561600	1.561600	1.561600
100.000000	1.553400	1.551600	1.552800	1.551800	1.551900	1.552000	1.552100	1.552100	1.552200	1.552200	1.552200	1.552300	1.552300	1.552300	1.552400	1.552400	1.552400	1.552400	1.552400	1.552400	1.552400	1.551300	1.551700	1.552000	1.552200	1.552300	1.552400	1.552300	1.552000	1.551700	1.552200	1.552200	1.552200	1.552100	1.552500	1.552500	1.552500	1.552500	1.552500
101.000000	1.543400	1.541700	1.542900	1.541900	1.542000	1.542100	1.542200	1.542200	1.542200	1.542300	1.542300	1.542300	1.542400	1.542400	1.542400	1.542400	1.542500	1.542500	1.542500	1.542500	1.542500	1.541400	1.541800	1.542100	1.542300	1.542400	1.542400	1.542400	1.542100	1.541800	1.542300	1.542300	1.542200	1.542100	1.542600	1.542600	1.542600	1.542600	1.542600
102.000000	1.532600	1.530900	1.532000	1.531100	1.531200	1.531300	1.531300	1.531400	1.531400	1.531500	1.531500	1.531500	1.531600	1.531600	1.531600	1.531600	1.531600	1.531700	1.531700	1.531700	1.531700	1.530600	1.531000	1.531300	1.531400	1.531600	1.531600	1.531600	1.531300	1.531000	1.531400	1.531500	1.531400	1.531300	1.531800	1.531800	1.531800	1.531800	1.531800
103.000000	1.520800	1.519200	1.520300	1.519400	1.519500	1.519600	1.519600	1.519700	1.519700	1.519800	1.519800	1.519800	1.519800	1.519900	1.519900	1.519900	1.519900	1.519900	1.519900	1.520000	1.520000	1.519000	1.519300	1.519600	1.519700	1.519900	1.519900	1.519900	1.519600	1.519300	1.519700	1.519800	1.519700	1.519600	1.520000	1.520000	1.520000	1.520000	1.520100
104.000000	1.508200	1.506700	1.507700	1.506900	1.506900	1.507000	1.507100	1.507100	1.507100	1.507200	1.507200	1.507200	1.507200	1.507300	1.507300	1.507300	1.507300	1.507300	1.507300	1.507400	1.507400	1.506400	1.506800	1.507000	1.507200	1.507300	1.507300	1.507300	1.507000	1.506800	1.507100	1.507200	1.507100	1.507000	1.507400	1.507400	1.507400	1.507400	1.507400
105.000000	1.494700	1.493200	1.494200	1.493400	1.493500	1.493600	1.493600	1.493600	1.493700	1.493700	1.493700	1.493800	1.493800	1.493800	1.493800	1.493900	1.493900	1.493900	1.493900	1.493900	1.493900	1.493000	1.493300	1.493600	1.493700	1.493800	1.493900	1.493800	1.493600	1.493300	1.493700	1.493700	1.493700	1.493600	1.494000	1.494000	1.494000	1.494000	1.494000
106.000000	1.480300	1.479000	1.479900	1.479200	1.479200	1.479300	1.479300	1.479400	1.479400	1.479400	1.479500	1.479500	1.479500	1.479500	1.479500	1.479600	1.479600	1.479600	1.479600	1.479600	1.479600	1.478700	1.479100	1.479300	1.479400	1.479500	1.479600	1.479500	1.479300	1.479100	1.479400	1.479400	1.479400	1.479300	1.479700	1.479700	1.479700	1.479700	1.479700
107.000000	1.465200	1.463900	1.464800	1.464100	1.464100	1.464200	1.464200	1.464200	1.464300	1.464300	1.464300	1.464400	1.464400	1.464400	1.464400	1.464400	1.464400	1.464500	1.464500	1.464500	1.464500	1.463700	1.464000	1.464200	1.464300	1.464400	1.464400	1.464400	1.464200	1.464000	1.464300	1.464300	1.464300	1.464200	1.464500	1.464500	1.464500	1.464500	1.464600
108.000000	1.449200	1.448000	1.448800	1.448100	1.448200	1.448200	1.448300	1.448300	1.448400	1.448400	1.448400	1.448400	1.448400	1.448500	1.448500	1.448500	1.448500	1.448500	1.448500	1.448500	1.448500	1.447800	1.448100	1.448200	1.448400	1.448500	1.448500	1.448500	1.448300	1.448000	1.448400	1.448400	1.448400	1.448300	1.448600	1.448600	1.448600	1.448600	1.448600
109.000000	1.432400	1.431300	1.432100	1.431400	1.431500	1.431500	1.431600	1.431600	1.431600	1.431700	1.431700	1.431700	1.431700	1.431700	1.431800	1.431800	1.431800	1.431800	1.431800	1.431800	1.431800	1.431100	1.431400	1.431500	1.431700	1.431700	1.431800	1.431700	1.431600	1.431300	1.431600	1.431700	1.431600	1.431600	1.431900	1.431900	1.431900	1.431900	1.431900
110.000000	1.414900	1.413800	1.414600	1.414000	1.414000	1.414100	1.414100	1.414100	1.414200	1.414200	1.414200	1.414200	1.414200	1.414300	1.414300	1.414300	1.414300	1.414300	1.414300	1.414300	1.414300	1.413600	1.413900	1.414100	1.414200	1.414300	1.414300	1.414300	1.414100	1.413900	1.414200	1.414200	1.414200	1.414100	1.414400	1.414400	1.414400	1.414400	1.414400
111.000000	1.396600	1.395600	1.396300	1.395800	1.395800	1.395800	1.395900	1.395900	1.395900	1.396000	1.396000	1.396000	1.396000	1.396000	1.396000	1.396100	1.396100	1.396100	1.396100	1.396100	1.396100	1.395400	1.395700	1.395800	1.395900	1.396000	1.396100	1.396000	1.395900	1.395700	1.395900	1.396000	1.395900	1.395900	1.396100	1.396100	1.396100	1.396100	1.396200
112.000000	1.377700	1.376700	1.377400	1.376800	1.376900	1.376900	1.376900	1.377000	1.377000	1.377000	1.377000	1.377000	1.377100	1.377100	1.377100	1.377100	1.377100	1.377100	1.377100	1.377100	1.377100	1.376500	1.376700	1.376900	1.377000	1.377100	1.377100	1.377100	1.376900	1.376700	1.377000	1.377000	1.377000	1.376900	1.377200	1.377200	1.377200	1.377200	1.377200
113.000000	1.358000	1.357000	1.357700	1.357200	1.357200	1.357200	1.357300	1.357300	1.357300	1.357300	1.357400	1.357400	1.357400	1.357400	1.357400	1.357400	1.357400	1.357500	1.357500	1.357500	1.357500	1.356900	1.357100	1.357200	1.357300	1.357400	1.357400	1.357400	1.357300	1.357100	1.357300	1.357400	1.357300	1.357300	1.357500	1.357500	1.357500	1.357500	1.357500
114.000000	1.337600	1.336700	1.337300	1.336800	1.336900	1.336900	1.336900	1.337000	1.337000	1.337000	1.337000	1.337000	1.337100	1.337100	1.337100	1.337100	1.337100	1.337100	1.337100	1.337100	1.337100	1.336600	1.336800	1.336900	1.337000	1.337100	1.337100	1.337100	1.336900	1.336800	1.337000	1.337000	1.337000	1.336900	1.337200	1.337200	1.337200	1.337200	1.337200
115.000000	1.316600	1.315800	1.316300	1.315900	1.315900	1.315900	1.316000	1.316000	1.316000	1.316000	1.316000	1.316100	1.316100	1.316100	1.316100	1.316100	1.316100	1.316100	1.316100	1.316100	1.316100	1.315600	1.315800	1.315900	1.316000	1.316100	1.316100	1.316100	1.316000	1.315800	1.316000	1.316000	1.316000	1.316000	1.316200	1.316200	1.316200	1.316200	1.316200
116.000000	1.295000	1.294200	1.294700	1.294300	1.294300	1.294300	1.294400	1.294400	1.294400	1.294400	1.294400	1.294500	1.294500	1.294500	1.294500	1.294500	1.294500	1.294500	1.294500	1.294500	1.294500	1.294000	1.294200	1.294300	1.294400	1.294500	1.294500	1.294500	1.294400	1.294200	1.294400	1.294400	1.294400	1.294400	1.294600	1.294600	1.294600	1.294600	1.294600
117.000000	1.272700	1.272000	1.272500	1.272100	1.272100	1.272100	1.272200	1.272200	1.272200	1.272200	1.272200	1.272200	1.272300	1.272300	1.272300	1.272300	1.272300	1.272300	1.272300	1.272300	1.272300	1.271800	1.272000	1.272100	1.272200	1.272300	1.272300	1.272300	1.272100	1.272000	1.272200	1.272200	1.272200	1.272100	1.272300	1.272400	1.272400	1.272400	1.272400
118.000000	1.249900	1.249200	1.249700	1.249300	1.249300	1.249400	1.249400	1.249400	1.249400	1.249400	1.249400	1.249500	1.249500	1.249500	1.249500	1.249500	1.249500	1.249500	1.249500	1.249500	1.249500	1.249100	1.249200	1.249400	1.249400	1.249500	1.249500	1.249500	1.249400	1.249200	1.249400	1.249400	1.249400	1.249400	1.249600	1.249600	1.249600	1.249600	1.249600
119.000000	1.226600	1.225900	1.226300	1.226000	1.226000	1.226000	1.226100	1.226100	1.226100	1.226100	1.226100	1.226100	1.226100	1.226200	1.226200	1.226200	1.226200	1.226200	1.226200	1.226200	1.226200	1.225800	1.225900	1.226000	1.226100	1.226100	1.226200	1.226200	1.226000	1.225900	1.226100	1.226100	1.226100	1.226000	1.226200	1.226200	1.226200	1.226200	1.226200
120.000000	1.202700	1.202100	1.202500	1.202100	1.202200	1.202200	1.202200	1.202200	1.202200	1.202300	1.202300	1.202300	1.202300	1.202300	1.202300	1.202300	1.202300	1.202300	1.202300	1.202300	1.202300	1.201900	1.202100	1.202200	1.202300	1.202300	1.202300	1.202300	1.202200	1.202100	1.202200	1.202300	1.202200	1.202200	1.202400	1.202400	1.202400	1.202400	1.202400
121.000000	1.178300	1.177700	1.178100	1.177800	1.177800	1.177900	1.177900	1.177900	1.177900	1.177900	1.177900	1.178000	1.178000	1.178000	1.178000	1.178000	1.178000	1.178000	1.178000	1.178000	1.178000	1.177600	1.177800	1.177900	1.177900	1.178000	1.178000	1.178000	1.177900	1.177800	1.177900	1.177900	1.177900	1.177900	1.178000	1.178000	1.178000	1.178000	1.178000
122.000000	1.153500	1.153000	1.153300	1.153000	1.153100	1.153100	1.153100	1.153100	1.153100	1.153100	1.153200	1.153200	1.153200	1.153200	1.153200	1.153200	1.153200	1.153200	1.153200	1.153200	1.153200	1.152800	1.153000	1.153100	1.153100	1.153200	1.153200	1.153200	1.153100	1.153000	1.153100	1.153100	1.153100	1.153100	1.153200	1.153200	1.153200	1.153200	1.153200
123.000000	1.128300	1.127800	1.128100	1.127800	1.127800	1.127900	1.127900	1.127900	1.127900	1.127900	1.127900	1.127900	1.128000	1.128000	1.128000	1.128000	1.128000	1.128000	1.128000	1.128000	1.128000	1.127600	1.127800	1.127900	1.127900	1.128000	1.128000	1.128000	1.127900	1.127800	1.127900	1.127900	1.127900	1.127900	1.128000	1.128000	1.128000	1.128000	1.128000
124.000000	1.102600	1.102200	1.102500	1.102200	1.102200	1.102300	1.102300	1.102300	1.102300	1.102300	1.102300	1.102300	1.102300	1.102400	1.102400	1.102400	1.102400	1.102400	1.102400	1.102400	1.102400	1.102000	1.102200	1.102300	1.102300	1.102300	1.102400	1.102400	1.102300	1.102200	1.102300	1.102300	1.102300	1.102300	1.102400	1.102400	1.102400	1.102400	1.102400
125.000000	1.076700	1.076200	1.076500	1.076300	1.076300	1.076300	1.076300	1.076300	1.076300	1.076300	1.076300	1.076400	1.076400	1.076400	1.076400	1.076400	1.076400	1.076400	1.076400	1.076400	1.076400	1.076100	1.076200	1.076300	1.076300	1.076400	1.076400	1.076400	1.076300	1.076200	1.076300	1.076300	1.076300	1.076300	1.076400	1.076400	1.076400	1.076400	1.076400
126.000000	1.050300	1.049900	1.050200	1.049900	1.050000	1.050000	1.050000	1.050000	1.050000	1.050000	1.050000	1.050000	1.050100	1.050100	1.050100	1.050100	1.050100	1.050100	1.050100	1.050100	1.050100	1.049800	1.049900	1.050000	1.050000	1.050100	1.050100	1.050100	1.050000	1.049900	1.050000	1.050000	1.050000	1.050000	1.050100	1.050100	1.050100	1.050100	1.050100
127.000000	1.023700	1.023300	1.023600	1.023300	1.023400	1.023400	1.023400	1.023400	1.023400	1.023400	1.023400	1.023400	1.023400	1.023400	1.023500	1.023500	1.023500	1.023500	1.023500	1.023500	1.023500	1.023200	1.023300	1.023400	1.023400	1.023400	1.023500	1.023400	1.023400	1.023300	1.023400	1.023400	1.023400	1.023400	1.023500	1.023500	1.023500	1.023500	1.023500
128.000000	0.996800	0.996400	0.996700	0.996500	0.996500	0.996500	0.996500	0.996500	0.996500	0.996500	0.996500	0.996600	0.996600	0.996600	0.996600	0.996600	0.996600	0.996600	0.996600	0.996600	0.996600	0.996300	0.996400	0.996500	0.996500	0.996600	0.996600	0.996600	0.996500	0.996400	0.996500	0.996500	0.996500	0.996500	0.996600	0.996600	0.996600	0.996600	0.996600
129.000000	0.969700	0.969300	0.969600	0.969400	0.969400	0.969400	0.969400	0.969400	0.969400	0.969400	0.969400	0.969400	0.969400	0.969400	0.969500	0.969500	0.969500	0.969500	0.969500	0.969500	0.969500	0.969200	0.969300	0.969400	0.969400	0.969400	0.969500	0.969400	0.969400	0.969300	0.969400	0.969400	0.969400	0.969400	0.969500	0.969500	0.969500	0.969500	0.969500
130.000000	0.942300	0.942000	0.942200	0.942000	0.942100	0.942100	0.942100	0.942100	0.942100	0.942100	0.942100	0.942100	0.942100	0.942100	0.942100	0.942100	0.942100	0.942100	0.942100	0.942100	0.942100	0.941900	0.942000	0.942100	0.942100	0.942100	0.942100	0.942100	0.942100	0.942000	0.942100	0.942100	0.942100	0.942100	0.942200	0.942200	0.942200	0.942200	0.942200
131.000000	0.914800	0.914500	0.914700	0.914600	0.914600	0.914600	0.914600	0.914600	0.914600	0.914600	0.914600	0.914600	0.914600	0.914600	0.914600	0.914600	0.914600	0.914600	0.914700	0.914700	0.914700	0.914400	0.914500	0.914600	0.914600	0.914600	0.914600	0.914600	0.914600	0.914500	0.914600	0.914600	0.914600	0.914600	0.914700	0.914700	0.914700	0.914700	0.914700
132.000000	0.887200	0.886900	0.887100	0.886900	0.886900	0.887000	0.887000	0.887000	0.887000	0.887000	0.887000	0.887000	0.887000	0.887000	0.887000	0.887000	0.887000	0.887000	0.887000	0.887000	0.887000	0.886800	0.886900	0.887000	0.887000	0.887000	0.887000	0.887000	0.887000	0.886900	0.887000	0.887000	0.887000	0.887000	0.887000	0.887000	0.887000	0.887000	0.887000
133.000000	0.859400	0.859200	0.859400	0.859200	0.859200	0.859200	0.859200	0.859200	0.859300	0.859300	0.859300	0.859300	0.859300	0.859300	0.859300	0.859300	0.859300	0.859300	0.859300	0.859300	0.859300	0.859100	0.859200	0.859200	0.859300	0.859300	0.859300	0.859300	0.859200	0.859200	0.859300	0.859300	0.859300	0.859200	0.859300	0.859300	0.859300	0.859300	0.859300
134.000000	0.831600	0.831400	0.831600	0.831400	0.831400	0.831400	0.831400	0.831500	0.831500	0.831500	0.831500	0.831500	0.831500	0.831500	0.831500	0.831500	0.831500	0.831500	0.831500	0.831500	0.831500	0.831300	0.831400	0.831400	0.831500	0.831500	0.831500	0.831500	0.831400	0.831400	0.831500	0.831500	0.831500	0.831400	0.831500	0.831500	0.831500	0.831500	0.831500
135.000000	0.803800	0.803600	0.803700	0.803600	0.803600	0.803600	0.803600	0.803600	0.803600	0.803600	0.803600	0.803600	0.803600	0.803700	0.803700	0.803700	0.803700	0.803700	0.803700	0.803700	0.803700	0.803500	0.803600	0.803600	0.803600	0.803600	0.803700	0.803700	0.803600	0.803600	0.803600	0.803600	0.803600	0.803600	0.803700	0.803700	0.803700	0.803700	0.803700
136.000000	0.776000	0.775700	0.775900	0.775800	0.775800	0.775800	0.775800	0.775800	0.775800	0.775800	0.775800	0.775800	0.775800	0.775800	0.775800	0.775800	0.775800	0.775800	0.775800	0.775800	0.775800	0.775700	0.775700	0.775800	0.775800	0.775800	0.775800	0.775800	0.775800	0.775700	0.775800	0.775800	0.775800	0.775800	0.775800	0.775800	0.775800	0.775800	0.775800
137.000000	0.748100	0.747900	0.748100	0.748000	0.748000	0.748000	0.748000	0.748000	0.748000	0.748000	0.748000	0.748000	0.748000	0.748000	0.748000	0.748000	0.748000	0.748000	0.748000	0.748000	0.748000	0.747900	0.747900	0.748000	0.748000	0.748000	0.748000	0.748000	0.748000	0.747900	0.748000	0.748000	0.748000	0.748000	0.748000	0.748000	0.748000	0.748000	0.748000
138.000000	0.720400	0.720200	0.720300	0.720200	0.720200	0.720300	0.720300	0.720300	0.720300	0.720300	0.720300	0.720300	0.720300	0.720300	0.720300	0.720300	0.720300	0.720300	0.720300	0.720300	0.720300	0.720200	0.720200	0.720300	0.720300	0.720300	0.720300	0.720300	0.720300	0.720200	0.720300	0.720300	0.720300	0.720300	0.720300	0.720300	0.720300	0.720300	0.720300
139.000000	0.692800	0.692600	0.692700	0.692600	0.692600	0.692600	0.692600	0.692600	0.692600	0.692600	0.692600	0.692700	0.692700	0.692700	0.692700	0.692700	0.692700	0.692700	0.692700	0.692700	0.692700	0.692500	0.692600	0.692600	0.692600	0.692700	0.692700	0.692700	0.692600	0.692600	0.692600	0.692600	0.692600	0.692600	0.692700	0.692700	0.692700	0.692700	0.692700
140.000000	0.665300	0.665100	0.665200	0.665100	0.665100	0.665100	0.665100	0.665100	0.665100	0.665100	0.665200	0.665200	0.665200	0.665200	0.665200	0.665200	0.665200	0.665200	0.665200	0.665200	0.665200	0.665100	0.665100	0.665100	0.665100	0.665200	0.665200	0.665200	0.665100	0.665100	0.665100	0.665200	0.665100	0.665100	0.665200	0.665200	0.665200	0.665200	0.665200
141.000000	0.637900	0.637800	0.637900	0.637800	0.637800	0.637800	0.637800	0.637800	0.637800	0.637800	0.637800	0.637800	0.637800	0.637800	0.637800	0.637800	0.637800	0.637800	0.637800	0.637800	0.637800	0.637700	0.637800	0.637800	0.637800	0.637800	0.637800	0.637800	0.637800	0.637800	0.637800	0.637800	0.637800	0.637800	0.637900	0.637900	0.637900	0.637900	0.637900
142.000000	0.610800	0.610700	0.610800	0.610700	0.610700	0.610700	0.610700	0.610700	0.610700	0.610700	0.610700	0.610700	0.610700	0.610700	0.610700	0.610700	0.610700	0.610700	0.610700	0.610700	0.610700	0.610600	0.610700	0.610700	0.610700	0.610700	0.610700	0.610700	0.610700	0.610700	0.610700	0.610700	0.610700	0.610700	0.610700	0.610700	0.610700	0.610700	0.610700
143.000000	0.583900	0.583800	0.583900	0.583800	0.583800	0.583800	0.583800	0.583800	0.583800	0.583800	0.583800	0.583800	0.583800	0.583800	0.583800	0.583800	0.583800	0.583800	0.583800	0.583800	0.583800	0.583700	0.583800	0.583800	0.583800	0.583800	0.583800	0.583800	0.583800	0.583800	0.583800	0.583800	0.583800	0.583800	0.583800	0.583800	0.583800	0.583800	0.583800
144.000000	0.557300	0.557100	0.557200	0.557200	0.557200	0.557200	0.557200	0.557200	0.557200	0.557200	0.557200	0.557200	0.557200	0.557200	0.557200	0.557200	0.557200	0.557200	0.557200	0.557200	0.557200	0.557100	0.557200	0.557200	0.557200	0.557200	0.557200	0.557200	0.557200	0.557100	0.557200	0.557200	0.557200	0.557200	0.557200	0.557200	0.557200	0.557200	0.557200
145.000000	0.530900	0.530800	0.530900	0.530800	0.530800	0.530900	0.530900	0.530900	0.530900	0.530900	0.530900	0.530900	0.530900	0.530900	0.530900	0.530900	0.530900	0.530900	0.530900	0.530900	0.530900	0.530800	0.530800	0.530800	0.530900	0.530900	0.530900	0.530900	0.530900	0.530800	0.530900	0.530900	0.530900	0.530900	0.530900	0.530900	0.530900	0.530900	0.530900
146.000000	0.504900	0.504800	0.504900	0.504900	0.504900	0.504900	0.504900	0.504900	0.504900	0.504900	0.504900	0.504900	0.504900	0.504900	0.504900	0.504900	0.504900	0.504900	0.504900	0.504900	0.504900	0.504800	0.504800	0.504900	0.504900	0.504900	0.504900	0.504900	0.504900	0.504800	0.504900	0.504900	0.504900	0.504900	0.504900	0.504900	0.504900	0.504900	0.504900
147.000000	0.479300	0.479200	0.479300	0.479200	0.479200	0.479200	0.479200	0.479200	0.479200	0.479200	0.479200	0.479200	0.479200	0.479300	0.479300	0.479300	0.479300	0.479300	0.479300	0.479300	0.479300	0.479200	0.479200	0.479200	0.479200	0.479200	0.479300	0.479300	0.479200	0.479200	0.479200	0.479200	0.479200	0.479200	0.479300	0.479300	0.479300	0.479300	0.479300
148.000000	0.454100	0.454000	0.454000	0.454000	0.454000	0.454000	0.454000	0.454000	0.454000	0.454000	0.454000	0.454000	0.454000	0.454000	0.454000	0.454000	0.454000	0.454000	0.454000	0.454000	0.454000	0.454000	0.454000	0.454000	0.454000	0.454000	0.454000	0.454000	0.454000	0.454000	0.454000	0.454000	0.454000	0.454000	0.454000	0.454000	0.454000	0.454000	0.454000
149.000000	0.429300	0.429200	0.429200	0.429200	0.429200	0.429200	0.429200	0.429200	0.429200	0.429200	0.429200	0.429200	0.429200	0.429200	0.429200	0.429200	0.429200	0.429200	0.429200	0.429200	0.429200	0.429200	0.429200	0.429200	0.429200	0.429200	0.429200	0.429200	0.429200	0.429200	0.429200	0.429200	0.429200	0.429200	0.429200	0.429200	0.429200	0.429200	0.429200
150.000000	0.404900	0.404800	0.404900	0.404800	0.404800	0.404800	0.404900	0.404900	0.404900	0.404900	0.404900	0.404900	0.404900	0.404900	0.404900	0.404900	0.404900	0.404900	0.404900	0.404900	0.404900	0.404800	0.404800	0.404800	0.404900	0.404900	0.404900	0.404900	0.404800	0.404800	0.404900	0.404900	0.404900	0.404800	0.404900	0.404900	0.404900	0.404900	0.404900
151.000000	0.381000	0.381000	0.381000	0.381000	0.381000	0.381000	0.381000	0.381000	0.381000	0.381000	0.381000	0.381000	0.381000	0.381000	0.381000	0.381000	0.381000	0.381000	0.381000	0.381000	0.381000	0.381000	0.381000	0.381000	0.381000	0.381000	0.381000	0.381000	0.381000	0.381000	0.381000	0.381000	0.381000	0.381000	0.381000	0.381000	0.381000	0.381000	0.381000
152.000000	0.357700	0.357600	0.357700	0.357600	0.357600	0.357600	0.357600	0.357600	0.357600	0.357600	0.357600	0.357600	0.357600	0.357600	0.357600	0.357600	0.357600	0.357600	0.357600	0.357600	0.357600	0.357600	0.357600	0.357600	0.357600	0.357600	0.357600	0.357600	0.357600	0.357600	0.357600	0.357600	0.357600	0.357600	0.357700	0.357700	0.357700	0.357700	0.357700
153.000000	0.334900	0.334800	0.334900	0.334800	0.334800	0.334800	0.334800	0.334800	0.334800	0.334800	0.334800	0.334800	0.334800	0.334800	0.334800	0.334800	0.334800	0.334800	0.334800	0.334800	0.334800	0.334800	0.334800	0.334800	0.334800	0.334800	0.334800	0.334800	0.334800	0.334800	0.334800	0.334800	0.334800	0.334800	0.334800	0.334800	0.334800	0.334800	0.334800
154.000000	0.312600	0.312600	0.312600	0.312600	0.312600	0.312600	0.312600	0.312600	0.312600	0.312600	0.312600	0.312600	0.312600	0.312600	0.312600	0.312600	0.312600	0.312600	0.312600	0.312600	0.312600	0.312600	0.312600	0.312600	0.312600	0.312600	0.312600	0.312600	0.312600	0.312600	0.312600	0.312600	0.312600	0.312600	0.312600	0.312600	0.312600	0.312600	0.312600
155.000000	0.291000	0.290900	0.291000	0.291000	0.291000	0.291000	0.291000	0.291000	0.291000	0.291000	0.291000	0.291000	0.291000	0.291000	0.291000	0.291000	0.291000	0.291000	0.291000	0.291000	0.291000	0.290900	0.290900	0.291000	0.291000	0.291000	0.291000	0.291000	0.291000	0.290900	0.291000	0.291000	0.291000	0.291000	0.291000	0.291000	0.291000	0.291000	0.291000
156.000000	0.270000	0.269900	0.270000	0.269900	0.269900	0.269900	0.269900	0.269900	0.269900	0.269900	0.269900	0.269900	0.269900	0.269900	0.269900	0.270000	0.270000	0.270000	0.270000	0.270000	0.270000	0.269900	0.269900	0.269900	0.269900	0.269900	0.270000	0.269900	0.269900	0.269900	0.269900	0.269900	0.269900	0.269900	0.270000	0.270000	0.270000	0.270000	0.270000
157.000000	0.249600	0.249600	0.249600	0.249600	0.249600	0.249600	0.249600	0.249600	0.249600	0.249600	0.249600	0.249600	0.249600	0.249600	0.249600	0.249600	0.249600	0.249600	0.249600	0.249600	0.249600	0.249600	0.249600	0.249600	0.249600	0.249600	0.249600	0.249600	0.249600	0.249600	0.249600	0.249600	0.249600	0.249600	0.249600	0.249600	0.249600	0.249600	0.249600
158.000000	0.229900	0.229900	0.229900	0.229900	0.229900	0.229900	0.229900	0.229900	0.229900	0.229900	0.229900	0.229900	0.229900	0.229900	0.229900	0.229900	0.229900	0.229900	0.229900	0.229900	0.229900	0.229900	0.229900	0.229900	0.229900	0.229900	0.229900	0.229900	0.229900	0.229900	0.229900	0.229900	0.229900	0.229900	0.229900	0.229900	0.229900	0.229900	0.229900
159.000000	0.210900	0.210900	0.210900	0.210900	0.210900	0.210900	0.210900	0.210900	0.210900	0.210900	0.210900	0.210900	0.210900	0.210900	0.210900	0.210900	0.210900	0.210900	0.210900	0.210900	0.210900	0.210900	0.210900	0.210900	0.210900	0.210900	0.210900	0.210900	0.210900	0.210900	0.210900	0.210900	0.210900	0.210900	0.210900	0.210900	0.210900	0.210900	0.210900
160.000000	0.192700	0.192600	0.192600	0.192600	0.192600	0.192600	0.192600	0.192600	0.192600	0.192600	0.192600	0.192600	0.192600	0.192600	0.192600	0.192600	0.192600	0.192600	0.192600	0.192600	0.192600	0.192600	0.192600	0.192600	0.192600	0.192600	0.192600	0.192600	0.192600	0.192600	0.192600	0.192600	0.192600	0.192600	0.192600	0.192600	0.192600	0.192600	0.192600
161.000000	0.175100	0.175100	0.175100	0.175100	0.175100	0.175100	0.175100	0.175100	0.175100	0.175100	0.175100	0.175100	0.175100	0.175100	0.175100	0.175100	0.175100	0.175100	0.175100	0.175100	0.175100	0.175100	0.175100	0.175100	0.175100	0.175100	0.175100	0.175100	0.175100	0.175100	0.175100	0.175100	0.175100	0.175100	0.175100	0.175100	0.175100	0.175100	0.175100
162.000000	0.158400	0.158400	0.158400	0.158400	0.158400	0.158400	0.158400	0.158400	0.158400	0.158400	0.158400	0.158400	0.158400	0.158400	0.158400	0.158400	0.158400	0.158400	0.158400	0.158400	0.158400	0.158400	0.158400	0.158400	0.158400	0.158400	0.158400	0.158400	0.158400	0.158400	0.158400	0.158400	0.158400	0.158400	0.158400	0.158400	0.158400	0.158400	0.158400
163.000000	0.142400	0.142400	0.142400	0.142400	0.142400	0.142400	0.142400	0.142400	0.142400	0.142400	0.142400	0.142400	0.142400	0.142400	0.142400	0.142400	0.142400	0.142400	0.142400	0.142400	0.142400	0.142400	0.142400	0.142400	0.142400	0.142400	0.142400	0.142400	0.142400	0.142400	0.142400	0.142400	0.142400	0.142400	0.142400	0.142400	0.142400	0.142400	0.142400
164.000000	0.127200	0.127200	0.127200	0.127200	0.127200	0.127200	0.127200	0.127200	0.127200	0.127200	0.127200	0.127200	0.127200	0.127200	0.127200	0.127200	0.127200	0.127200	0.127200	0.127200	0.127200	0.127200	0.127200	0.127200	0.127200	0.127200	0.127200	0.127200	0.127200	0.127200	0.127200	0.127200	0.127200	0.127200	0.127200	0.127200	0.127200	0.127200	0.127200
165.000000	0.112900	0.112900	0.112900	0.112900	0.112900	0.112900	0.112900	0.112900	0.112900	0.112900	0.112900	0.112900	0.112900	0.112900	0.112900	0.112900	0.112900	0.112900	0.112900	0.112900	0.112900	0.112900	0.112900	0.112900	0.112900	0.112900	0.112900	0.112900	0.112900	0.112900	0.112900	0.112900	0.112900	0.112900	0.112900	0.112900	0.112900	0.112900	0.112900
166.000000	0.099400	0.099400	0.099400	0.099400	0.099400	0.099400	0.099400	0.099400	0.099400	0.099400	0.099400	0.099400	0.099400	0.099400	0.099400	0.099400	0.099400	0.099400	0.099400	0.099400	0.099400	0.099400	0.099400	0.099400	0.099400	0.099400	0.099400	0.099400	0.099400	0.099400	0.099400	0.099400	0.099400	0.099400	0.099400	0.099400	0.099400	0.099400	0.099400
167.000000	0.086700	0.086700	0.086700	0.086700	0.086700	0.086700	0.086700	0.086700	0.086700	0.086700	0.086700	0.086700	0.086700	0.086700	0.086700	0.086700	0.086700	0.086700	0.086700	0.086700	0.086700	0.086700	0.086700	0.086700	0.086700	0.086700	0.086700	0.086700	0.086700	0.086700	0.086700	0.086700	0.086700	0.086700	0.086700	0.086700	0.086700	0.086700	0.086700
168.000000	0.075000	0.075000	0.075000	0.075000	0.075000	0.075000	0.075000	0.075000	0.075000	0.075000	0.075000	0.075000	0.075000	0.075000	0.075000	0.075000	0.075000	0.075000	0.075000	0.075000	0.075000	0.075000	0.075000	0.075000	0.075000	0.075000	0.075000	0.075000	0.075000	0.075000	0.075000	0.075000	0.075000	0.075000	0.075000	0.075000	0.075000	0.075000	0.075000
169.000000	0.064100	0.064100	0.064100	0.064100	0.064100	0.064100	0.064100	0.064100	0.064100	0.064100	0.064100	0.064100	0.064100	0.064100	0.064100	0.064100	0.064100	0.064100	0.064100	0.064100	0.064100	0.064100	0.064100	0.064100	0.064100	0.064100	0.064100	0.064100	0.064100	0.064100	0.064100	0.064100	0.064100	0.064100	0.064100	0.064100	0.064100	0.064100	0.064100
170.000000	0.054100	0.054100	0.054100	0.054100	0.054100	0.054100	0.054100	0.054100	0.054100	0.054100	0.054100	0.054100	0.054100	0.054100	0.054100	0.054100	0.054100	0.054100	0.054100	0.054100	0.054100	0.054100	0.054100	0.054100	0.054100	0.054100	0.054100	0.054100	0.054100	0.054100	0.054100	0.054100	0.054100	0.054100	0.054100	0.054100	0.054100	0.054100	0.054100
171.000000	0.045000	0.045100	0.045000	0.045100	0.045100	0.045100	0.045100	0.045100	0.045100	0.045100	0.045100	0.045100	0.045100	0.045100	0.045100	0.045100	0.045100	0.045100	0.045100	0.045100	0.045100	0.045100	0.045100	0.045100	0.045100	0.045100	0.045100	0.045100	0.045100	0.045100	0.045100	0.045100	0.045100	0.045100	0.045100	0.045100	0.045100	0.045100	0.045100
172.000000	0.036900	0.036900	0.036900	0.036900	0.036900	0.036900	0.036900	0.036900	0.036900	0.036900	0.036900	0.036900	0.036900	0.036900	0.036900	0.036900	0.036900	0.036900	0.036900	0.036900	0.036900	0.036900	0.036900	0.036900	0.036900	0.036900	0.036900	0.036900	0.036900	0.036900	0.036900	0.036900	0.036900	0.036900	0.036900	0.036900	0.036900	0.036900	0.036900
173.000000	0.029700	0.029700	0.029700	0.029700	0.029700	0.029700	0.029700	0.029700	0.029700	0.029700	0.029700	0.029700	0.029700	0.029700	0.029700	0.029700	0.029700	0.029700	0.029700	0.029700	0.029700	0.029700	0.029700	0.029700	0.029700	0.029700	0.029700	0.029700	0.029700	0.029700	0.029700	0.029700	0.029700	0.029700	0.029700	0.029700	0.029700	0.029700	0.029700
174.000000	0.023400	0.023400	0.023400	0.023400	0.023400	0.023400	0.023400	0.023400	0.023400	0.023400	0.023400	0.023400	0.023400	0.023400	0.023400	0.023400	0.023400	0.023400	0.023400	0.023400	0.023400	0.023400	0.023400	0.023400	0.023400	0.023400	0.023400	0.023400	0.023400	0.023400	0.023400	0.023400	0.023400	0.023400	0.023400	0.023400	0.023400	0.023400	0.023400
175.000000	0.018100	0.018100	0.018100	0.018100	0.018100	0.018100	0.018100	0.018100	0.018100	0.018100	0.018100	0.018100	0.018100	0.018100	0.018100	0.018100	0.018100	0.018100	0.018100	0.018100	0.018100	0.018100	0.018100	0.018100	0.018100	0.018100	0.018100	0.018100	0.018100	0.018100	0.018100	0.018100	0.018100	0.018100	0.018100	0.018100	0.018100	0.018100	0.018100
176.000000	0.013800	0.013800	0.013800	0.013800	0.013800	0.013800	0.013800	0.013800	0.013800	0.013800	0.013800	0.013800	0.013800	0.013800	0.013800	0.013800	0.013800	0.013800	0.013800	0.013800	0.013800	0.013800	0.013800	0.013800	0.013800	0.013800	0.013800	0.013800	0.013800	0.013800	0.013800	0.013800	0.013800	0.013800	0.013800	0.013800	0.013800	0.013800	0.013800
177.000000	0.010400	0.010400	0.010400	0.010400	0.010400	0.010400	0.010400	0.010400	0.010400	0.010400	0.010400	0.010400	0.010400	0.010400	0.010400	0.010400	0.010400	0.010400	0.010400	0.010400	0.010400	0.010400	0.010400	0.010400	0.010400	0.010400	0.010400	0.010400	0.010400	0.010400	0.010400	0.010400	0.010400	0.010400	0.010400	0.010400	0.010400	0.010400	0.010400
178.000000	0.007900	0.008000	0.007900	0.008000	0.008000	0.008000	0.008000	0.008000	0.008000	0.008000	0.008000	0.008000	0.008000	0.008000	0.008000	0.008000	0.007900	0.007900	0.007900	0.007900	0.007900	0.008000	0.008000	0.008000	0.008000	0.008000	0.008000	0.008000	0.008000	0.008000	0.008000	0.008000	0.008000	0.008000	0.007900	0.007900	0.007900	0.007900	0.007900
179.000000	0.006500	0.006500	0.006500	0.006500	0.006500	0.006500	0.006500	0.006500	0.006500	0.006500	0.006500	0.006500	0.006500	0.006500	0.006500	0.006500	0.006500	0.006500	0.006500	0.006500	0.006500	0.006500	0.006500	0.006500	0.006500	0.006500	0.006500	0.006500	0.006500	0.006500	0.006500	0.006500	0.006500	0.006500	0.006500	0.006500	0.006500	0.006500	0.006500
180.000000	0.006000	0.006000	0.006000	0.006000	0.006000	0.006000	0.006000	0.006000	0.006000	0.006000	0.006000	0.006000	0.006000	0.006000	0.006000	0.006000	0.006000	0.006000	0.006000	0.006000	0.006000	0.006000	0.006000	0.006000	0.006000	0.006000	0.006000	0.006000	0.006000	0.006000	0.006000	0.006000	0.006000	0.006000	0.006000	0.006000	0.006000	0.006000	0.006000
