First column is AoA (deg) and first row is Reynolds Number
0.000000	200000.000000	300000.000000	400000.000000	500000.000000	600000.000000	700000.000000	800000.000000	900000.000000	1000000.000000	1100000.000000	1200000.000000	1300000.000000	1400000.000000	1500000.000000	1600000.000000	1700000.000000	1800000.000000	1900000.000000	2000000.000000	2100000.000000	2200000.000000	2300000.000000	2400000.000000	2500000.000000	2600000.000000	2700000.000000	2800000.000000	2900000.000000	3000000.000000	3100000.000000	3200000.000000	3300000.000000	3400000.000000	3500000.000000	3600000.000000	3700000.000000	3800000.000000	3900000.000000	4000000.000000
-180.000000	-0.046200	-0.046100	-0.046100	-0.046000	-0.046400	-0.046050	-0.046150	-0.046300	-0.046500	-0.046550	-0.046600	-0.046650	-0.046700	-0.046750	-0.046850	-0.046950	-0.047050	-0.046950	-0.047050	-0.047000	-0.047300	-0.047400	-0.047350	-0.047450	-0.047400	-0.047350	-0.047450	-0.047400	-0.047500	-0.047500	-0.047450	-0.047550	-0.047550	-0.047500	-0.047650	-0.047600	-0.047600	-0.047700	-0.047700
-179.000000	0.062551	0.060451	0.054001	0.033000	-0.002450	-0.016501	0.014250	0.045050	0.051450	0.051550	0.051150	0.050700	0.050300	0.049800	0.049450	0.049200	0.048950	0.048750	0.048550	0.048400	0.048050	0.047950	0.047800	0.047700	0.047600	0.047500	0.047250	0.047150	0.047100	0.047000	0.046950	0.046850	0.046800	0.046750	0.046650	0.046600	0.046550	0.046500	0.046450
-178.000000	0.168452	0.160002	0.139051	0.093801	0.037900	0.014549	0.059999	0.119950	0.142751	0.147951	0.148451	0.147900	0.147150	0.146500	0.145950	0.145350	0.144900	0.144450	0.144200	0.143800	0.143400	0.143100	0.142950	0.142650	0.142400	0.142150	0.142100	0.141850	0.141650	0.141650	0.141450	0.141300	0.141150	0.140950	0.141000	0.140850	0.140700	0.140600	0.140450
-177.000000	0.264353	0.242653	0.202602	0.139151	0.075450	0.046549	0.096449	0.173500	0.218351	0.236301	0.242401	0.244101	0.243851	0.243051	0.242251	0.241601	0.240900	0.240300	0.239800	0.239350	0.238750	0.238400	0.237900	0.237650	0.237350	0.237000	0.236750	0.236600	0.236250	0.236100	0.235850	0.235700	0.235450	0.235350	0.235150	0.235050	0.234850	0.234800	0.234600
-176.000000	0.338204	0.300153	0.244202	0.173751	0.111001	0.079199	0.128049	0.207550	0.269950	0.305651	0.324201	0.333001	0.336701	0.337951	0.337901	0.337451	0.336701	0.336001	0.335401	0.334751	0.334101	0.333550	0.333050	0.332600	0.332200	0.331800	0.331450	0.331150	0.330850	0.330600	0.330350	0.330150	0.329950	0.329600	0.329450	0.329300	0.329000	0.328850	0.328600
-175.000000	0.382054	0.331153	0.269052	0.201651	0.144901	0.111849	0.157699	0.229499	0.297000	0.347150	0.380951	0.402101	0.414851	0.422501	0.426751	0.428951	0.429951	0.430301	0.430201	0.429901	0.429301	0.428701	0.428201	0.427701	0.427151	0.426651	0.426300	0.425850	0.425450	0.425100	0.424900	0.424600	0.424300	0.424000	0.423750	0.423500	0.423150	0.422900	0.422750
-174.000000	0.397504	0.343253	0.284602	0.226001	0.177301	0.144299	0.186449	0.246799	0.308250	0.362100	0.405550	0.438851	0.463251	0.481151	0.493851	0.503051	0.509401	0.513901	0.517051	0.519051	0.520201	0.521001	0.521401	0.521551	0.521401	0.521151	0.520851	0.520451	0.520051	0.519751	0.519300	0.519000	0.518600	0.518250	0.517900	0.517550	0.517400	0.517150	0.516900
-173.000000	0.395703	0.346302	0.296701	0.248701	0.208701	0.176449	0.214599	0.263449	0.314200	0.362000	0.405400	0.442950	0.474700	0.501300	0.523201	0.541201	0.555801	0.567801	0.577551	0.585401	0.591601	0.596651	0.600851	0.604051	0.606551	0.608551	0.610001	0.611151	0.611801	0.612301	0.612551	0.612701	0.612651	0.612500	0.612200	0.611800	0.611550	0.611200	0.610850
-172.000000	0.388352	0.348002	0.308801	0.270951	0.238951	0.208100	0.242299	0.281299	0.320700	0.358900	0.395300	0.429000	0.460150	0.488350	0.514050	0.537050	0.557750	0.576250	0.592900	0.607750	0.620600	0.632300	0.642750	0.652050	0.660100	0.667350	0.673600	0.679250	0.684000	0.688250	0.691850	0.694900	0.697550	0.699750	0.701400	0.702750	0.703800	0.704350	0.704700
-171.000000	0.383202	0.352101	0.322351	0.293051	0.268351	0.239000	0.269600	0.300300	0.330300	0.359000	0.386700	0.413150	0.438400	0.462450	0.485350	0.507100	0.527800	0.547400	0.566150	0.583850	0.600450	0.616500	0.631650	0.646100	0.659750	0.672700	0.684950	0.696600	0.707700	0.718000	0.727900	0.737000	0.745750	0.753900	0.761600	0.768650	0.775300	0.781500	0.787100
-170.000000	0.382851	0.359751	0.337751	0.315301	0.296951	0.269150	0.296200	0.320500	0.342800	0.364050	0.384050	0.403350	0.421850	0.439950	0.457300	0.474200	0.490800	0.507000	0.523100	0.538700	0.553750	0.569000	0.584000	0.598900	0.613600	0.628200	0.642650	0.657099	0.671449	0.685899	0.700149	0.714599	0.729049	0.743599	0.758249	0.773049	0.788149	0.803499	0.819199
-169.000000	0.387651	0.370901	0.354601	0.337651	0.324751	0.298550	0.322300	0.341350	0.358150	0.373450	0.387800	0.401300	0.414300	0.426950	0.439150	0.451150	0.462900	0.474700	0.486200	0.497700	0.508900	0.520550	0.532100	0.543850	0.555650	0.567799	0.579899	0.592449	0.605399	0.618499	0.632199	0.646249	0.660999	0.676399	0.692799	0.710099	0.728599	0.748298	0.768048
-168.000000	0.396901	0.384751	0.373001	0.360051	0.351751	0.327100	0.347850	0.362800	0.375250	0.386350	0.396450	0.405900	0.414900	0.423400	0.431700	0.439800	0.447750	0.455600	0.463400	0.471200	0.478750	0.486600	0.494550	0.502650	0.510800	0.519200	0.527750	0.536550	0.545800	0.555299	0.565199	0.575799	0.586849	0.598699	0.611499	0.625199	0.639999	0.655748	0.669597
-167.000000	0.409401	0.400851	0.392200	0.382401	0.378001	0.354900	0.372650	0.384400	0.393700	0.401700	0.408900	0.415450	0.421500	0.427400	0.432900	0.438350	0.443550	0.448700	0.453900	0.458950	0.463750	0.468850	0.473950	0.479250	0.484450	0.489850	0.495450	0.501150	0.506950	0.513100	0.519600	0.526450	0.533600	0.541300	0.549699	0.558649	0.568349	0.578299	0.585748
-166.000000	0.424350	0.418250	0.411950	0.404750	0.403301	0.381750	0.397000	0.406150	0.412950	0.418850	0.423900	0.428450	0.432600	0.436550	0.440300	0.443800	0.447350	0.450750	0.454000	0.457250	0.460350	0.463600	0.466800	0.470150	0.473400	0.476800	0.480200	0.483850	0.487500	0.491350	0.495300	0.499450	0.503950	0.508650	0.513700	0.519200	0.525050	0.531049	0.535049
-165.000000	0.440950	0.436550	0.432100	0.426700	0.427951	0.407800	0.420600	0.427750	0.432800	0.437000	0.440650	0.443700	0.446650	0.449250	0.451750	0.454150	0.456450	0.458600	0.460750	0.462950	0.464750	0.466950	0.468950	0.470950	0.473050	0.475250	0.477300	0.479600	0.481800	0.484200	0.486550	0.489200	0.491800	0.494650	0.497650	0.500950	0.504450	0.508100	0.510400
-164.000000	0.458500	0.455450	0.452150	0.448200	0.451851	0.432850	0.443550	0.449100	0.452900	0.455750	0.458300	0.460550	0.462500	0.464250	0.466050	0.467550	0.469100	0.470500	0.471950	0.473200	0.474450	0.475750	0.477000	0.478450	0.479650	0.481050	0.482400	0.483750	0.485150	0.486550	0.488050	0.489600	0.491200	0.493000	0.494750	0.496700	0.498850	0.501000	0.502450
-163.000000	0.476500	0.474450	0.472200	0.469400	0.474701	0.456950	0.465750	0.469950	0.472750	0.474850	0.476650	0.478200	0.479500	0.480800	0.481850	0.482950	0.483900	0.484850	0.485800	0.486650	0.487300	0.488100	0.489050	0.489900	0.490700	0.491450	0.492400	0.493150	0.494050	0.494900	0.495850	0.496800	0.497800	0.498750	0.499900	0.501100	0.502300	0.503550	0.504500
-162.000000	0.494800	0.493450	0.491900	0.489900	0.496951	0.480050	0.487250	0.490400	0.492400	0.493900	0.495100	0.496200	0.497150	0.497950	0.498600	0.499300	0.500001	0.500551	0.501251	0.501851	0.502251	0.502651	0.503201	0.503751	0.504301	0.504801	0.505351	0.505851	0.506351	0.506851	0.507451	0.508051	0.508601	0.509251	0.510001	0.510651	0.511350	0.512100	0.512700
-161.000000	0.513000	0.512100	0.511300	0.509950	0.518151	0.502300	0.508050	0.510250	0.511750	0.512800	0.513600	0.514301	0.514951	0.515501	0.515851	0.516401	0.516801	0.517201	0.517551	0.517951	0.518051	0.518451	0.518801	0.519001	0.519401	0.519751	0.519951	0.520301	0.520651	0.520951	0.521251	0.521701	0.521951	0.522351	0.522901	0.523201	0.523751	0.524151	0.524501
-160.000000	0.530900	0.530400	0.530050	0.529150	0.538401	0.523400	0.527800	0.529500	0.530550	0.531150	0.531801	0.532201	0.532551	0.532901	0.533251	0.533601	0.533751	0.533951	0.534301	0.534451	0.534501	0.534651	0.534951	0.535101	0.535251	0.535401	0.535701	0.535801	0.536101	0.536201	0.536451	0.536701	0.536751	0.537001	0.537351	0.537501	0.537751	0.538101	0.538251
-159.000000	0.548450	0.548250	0.548050	0.547650	0.557901	0.543700	0.546950	0.548000	0.548751	0.549051	0.549401	0.549751	0.550051	0.550151	0.550301	0.550551	0.550651	0.550751	0.550851	0.551101	0.551051	0.551101	0.551201	0.551401	0.551451	0.551501	0.551701	0.551701	0.551901	0.551901	0.552101	0.552251	0.552251	0.552401	0.552501	0.552601	0.552851	0.552901	0.553101
-158.000000	0.565250	0.565400	0.565550	0.565550	0.576401	0.562850	0.565050	0.565850	0.566151	0.566451	0.566551	0.566851	0.566901	0.566951	0.567001	0.567151	0.567201	0.567351	0.567351	0.567451	0.567301	0.567451	0.567401	0.567501	0.567601	0.567501	0.567601	0.567651	0.567751	0.567801	0.567851	0.567901	0.567951	0.568001	0.568001	0.568001	0.568151	0.568151	0.568201
-157.000000	0.581500	0.581800	0.582200	0.582450	0.594001	0.581050	0.582300	0.582701	0.582951	0.583001	0.583101	0.583101	0.583251	0.583201	0.583301	0.583201	0.583251	0.583301	0.583351	0.583351	0.583251	0.583251	0.583201	0.583201	0.583301	0.583301	0.583251	0.583351	0.583301	0.583251	0.583301	0.583251	0.583301	0.583401	0.583301	0.583351	0.583401	0.583451	0.583451
-156.000000	0.597100	0.597550	0.598000	0.598400	0.610501	0.598200	0.598600	0.598801	0.598851	0.598901	0.598851	0.598801	0.598801	0.598801	0.598801	0.598751	0.598701	0.598751	0.598651	0.598701	0.598601	0.598501	0.598501	0.598501	0.598501	0.598501	0.598451	0.598451	0.598401	0.598351	0.598301	0.598401	0.598351	0.598301	0.598401	0.598301	0.598251	0.598301	0.598201
-155.000000	0.611850	0.612350	0.613050	0.613550	0.626151	0.614400	0.614100	0.613951	0.613951	0.613901	0.613751	0.613751	0.613651	0.613551	0.613551	0.613551	0.613501	0.613451	0.613351	0.613301	0.613251	0.613101	0.613151	0.613151	0.613001	0.613051	0.613001	0.613001	0.613001	0.612951	0.612951	0.612901	0.612851	0.612801	0.612751	0.612701	0.612651	0.612601	0.612551
-154.000000	0.625700	0.626350	0.627150	0.627850	0.640851	0.629400	0.628500	0.628301	0.628051	0.627901	0.627851	0.627851	0.627651	0.627551	0.627601	0.627451	0.627451	0.627401	0.627351	0.627301	0.627101	0.627001	0.627051	0.626951	0.626951	0.626801	0.626851	0.626851	0.626651	0.626651	0.626651	0.626601	0.626601	0.626551	0.626501	0.626501	0.626451	0.626401	0.626401
-153.000000	0.638750	0.639550	0.640300	0.641050	0.654351	0.643500	0.642000	0.641551	0.641401	0.641101	0.641101	0.641001	0.640801	0.640751	0.640651	0.640551	0.640551	0.640551	0.640351	0.640301	0.640151	0.640051	0.640101	0.640001	0.639901	0.639901	0.639951	0.639801	0.639801	0.639651	0.639651	0.639601	0.639601	0.639601	0.639401	0.639401	0.639351	0.639301	0.639301
-152.000000	0.650850	0.651700	0.652550	0.653350	0.667001	0.656350	0.654400	0.653901	0.653651	0.653401	0.653401	0.653201	0.653051	0.653001	0.652951	0.652851	0.652701	0.652701	0.652551	0.652501	0.652351	0.652301	0.652201	0.652251	0.652151	0.652051	0.652051	0.651951	0.651951	0.651801	0.651801	0.651801	0.651651	0.651601	0.651601	0.651601	0.651401	0.651401	0.651401
-151.000000	0.661950	0.662800	0.663800	0.664800	0.678601	0.668350	0.665900	0.665351	0.665101	0.664751	0.664651	0.664601	0.664501	0.664351	0.664251	0.664201	0.664101	0.663951	0.663951	0.663751	0.663651	0.663601	0.663501	0.663401	0.663451	0.663351	0.663251	0.663251	0.663151	0.663151	0.663001	0.663001	0.663001	0.662851	0.662851	0.662801	0.662651	0.662651	0.662651
-150.000000	0.672150	0.673150	0.674100	0.675050	0.689151	0.679200	0.676400	0.675701	0.675351	0.675201	0.675001	0.674951	0.674701	0.674751	0.674551	0.674451	0.674351	0.674251	0.674251	0.674101	0.674001	0.673951	0.673901	0.673801	0.673701	0.673751	0.673651	0.673551	0.673551	0.673451	0.673451	0.673301	0.673301	0.673301	0.673151	0.673151	0.672951	0.672951	0.672951
-149.000000	0.681300	0.682350	0.683400	0.684400	0.698551	0.689000	0.685800	0.685200	0.684751	0.684651	0.684451	0.684301	0.684201	0.684051	0.683901	0.683851	0.683751	0.683651	0.683701	0.683551	0.683451	0.683401	0.683351	0.683251	0.683201	0.683101	0.683001	0.682901	0.682901	0.682801	0.682801	0.682651	0.682651	0.682501	0.682501	0.682501	0.682351	0.682351	0.682351
-148.000000	0.689600	0.690650	0.691700	0.692750	0.707051	0.684600	0.694200	0.693650	0.693251	0.693001	0.692801	0.692701	0.692501	0.692401	0.692351	0.692201	0.692101	0.692001	0.692051	0.691901	0.691851	0.691801	0.691601	0.691551	0.691451	0.691551	0.691451	0.691351	0.691201	0.691251	0.691101	0.691151	0.691001	0.691001	0.691001	0.690851	0.690851	0.690701	0.690701
-147.000000	0.696750	0.697800	0.699100	0.700100	0.714451	0.692500	0.701600	0.700900	0.700551	0.700351	0.700201	0.700101	0.699901	0.699801	0.699801	0.699651	0.699551	0.699501	0.699351	0.699401	0.699201	0.699151	0.699101	0.699051	0.699001	0.698901	0.698851	0.698751	0.698601	0.698651	0.698551	0.698551	0.698401	0.698451	0.698301	0.698301	0.698301	0.698151	0.698151
-146.000000	0.703050	0.704100	0.705350	0.706450	0.720801	0.699400	0.707950	0.707300	0.707000	0.706801	0.706501	0.706451	0.706251	0.706151	0.706051	0.706051	0.706001	0.705901	0.705801	0.705701	0.705651	0.705501	0.705451	0.705401	0.705351	0.705251	0.705201	0.705101	0.705151	0.705051	0.704901	0.704951	0.704801	0.704801	0.704701	0.704701	0.704701	0.704551	0.704551
-145.000000	0.708300	0.709400	0.710600	0.711750	0.726101	0.705150	0.713300	0.712700	0.712250	0.712101	0.712001	0.711751	0.711751	0.711551	0.711401	0.711401	0.711401	0.711151	0.711251	0.711101	0.710951	0.710951	0.710901	0.710851	0.710651	0.710751	0.710651	0.710551	0.710451	0.710351	0.710401	0.710301	0.710301	0.710201	0.710201	0.710051	0.710051	0.709901	0.709951
-144.000000	0.712450	0.713700	0.714850	0.715900	0.730451	0.709850	0.717650	0.716900	0.716650	0.716350	0.716251	0.716201	0.716051	0.715851	0.715901	0.715801	0.715751	0.715551	0.715451	0.715501	0.715351	0.715351	0.715151	0.715151	0.715101	0.715051	0.714951	0.714851	0.714951	0.714851	0.714701	0.714751	0.714651	0.714651	0.714501	0.714551	0.714401	0.714401	0.714251
-143.000000	0.715599	0.716800	0.718100	0.719250	0.733751	0.713600	0.720950	0.720250	0.720000	0.719750	0.719701	0.719501	0.719351	0.719351	0.719251	0.719101	0.719101	0.718901	0.718851	0.718901	0.718751	0.718751	0.718551	0.718551	0.718501	0.718451	0.718351	0.718301	0.718201	0.718251	0.718151	0.718051	0.718051	0.717951	0.717951	0.717851	0.717851	0.717701	0.717751
-142.000000	0.717899	0.719100	0.720350	0.721550	0.735901	0.716150	0.723250	0.722600	0.722200	0.722150	0.721951	0.721751	0.721801	0.721601	0.721551	0.721451	0.721401	0.721251	0.721151	0.721251	0.721101	0.721101	0.720951	0.720901	0.720901	0.720851	0.720751	0.720701	0.720601	0.720501	0.720551	0.720451	0.720351	0.720351	0.720251	0.720251	0.720101	0.720151	0.720001
-141.000000	0.719099	0.720250	0.721600	0.722700	0.737051	0.717700	0.724550	0.723900	0.723550	0.723350	0.723300	0.723151	0.723051	0.722901	0.722801	0.722851	0.722701	0.722701	0.722651	0.722551	0.722401	0.722451	0.722301	0.722251	0.722251	0.722201	0.722151	0.722051	0.722001	0.721901	0.721951	0.721851	0.721751	0.721751	0.721651	0.721651	0.721501	0.721551	0.721401
-140.000000	0.719249	0.720550	0.721800	0.723000	0.737351	0.718250	0.724850	0.724250	0.723900	0.723700	0.723500	0.723501	0.723451	0.723301	0.723251	0.723151	0.723001	0.722951	0.722901	0.722851	0.722901	0.722751	0.722751	0.722601	0.722551	0.722501	0.722451	0.722401	0.722351	0.722251	0.722301	0.722201	0.722101	0.722101	0.722001	0.722001	0.721901	0.721901	0.721801
-139.000000	0.718449	0.719700	0.721050	0.722300	0.736451	0.717950	0.724100	0.723500	0.723200	0.723000	0.722850	0.722850	0.722801	0.722651	0.722601	0.722501	0.722401	0.722401	0.722351	0.722251	0.722151	0.722201	0.722051	0.722051	0.722001	0.721801	0.721751	0.721701	0.721801	0.721701	0.721601	0.721501	0.721551	0.721451	0.721451	0.721351	0.721351	0.721251	0.721251
-138.000000	0.716799	0.718000	0.719300	0.720600	0.734701	0.716450	0.722500	0.721800	0.721450	0.721300	0.721300	0.721200	0.721150	0.721001	0.720951	0.720901	0.720751	0.720751	0.720701	0.720651	0.720551	0.720601	0.720451	0.720451	0.720251	0.720251	0.720201	0.720151	0.720051	0.720151	0.720051	0.719951	0.720001	0.719901	0.719751	0.719801	0.719651	0.719701	0.719551
-137.000000	0.714049	0.715350	0.716650	0.717900	0.731951	0.714100	0.719700	0.719150	0.718900	0.718750	0.718600	0.718650	0.718450	0.718451	0.718301	0.718351	0.718251	0.718101	0.718051	0.718001	0.718051	0.717951	0.717801	0.717801	0.717801	0.717751	0.717701	0.717651	0.717601	0.717501	0.717451	0.717351	0.717401	0.717301	0.717301	0.717201	0.717201	0.717101	0.717101
-136.000000	0.710399	0.711650	0.713050	0.714300	0.728251	0.710600	0.716200	0.715550	0.715400	0.715250	0.715150	0.715050	0.715000	0.714900	0.714851	0.714801	0.714701	0.714701	0.714501	0.714451	0.714551	0.714401	0.714301	0.714301	0.714301	0.714251	0.714201	0.714151	0.714101	0.714001	0.713951	0.713851	0.713901	0.713801	0.713801	0.713701	0.713601	0.713601	0.713651
-135.000000	0.705949	0.707099	0.708550	0.709700	0.723601	0.706350	0.711700	0.711000	0.710750	0.710650	0.710650	0.710550	0.710550	0.710400	0.710250	0.710351	0.710251	0.710101	0.710051	0.710051	0.709951	0.710001	0.709851	0.709851	0.709851	0.709701	0.709651	0.709601	0.709551	0.709451	0.709551	0.709451	0.709351	0.709401	0.709251	0.709301	0.709201	0.709201	0.709101
-134.000000	0.700449	0.701649	0.703000	0.704250	0.717851	0.701100	0.706100	0.705600	0.705350	0.705250	0.705150	0.705200	0.705000	0.705050	0.704900	0.704850	0.704751	0.704751	0.704751	0.704701	0.704601	0.704501	0.704551	0.704401	0.704401	0.704351	0.704351	0.704301	0.704201	0.704151	0.704051	0.704151	0.704051	0.703951	0.703951	0.703851	0.703901	0.703751	0.703801
-133.000000	0.693999	0.695249	0.696650	0.697850	0.711401	0.694900	0.699800	0.699300	0.699050	0.698950	0.698850	0.698750	0.698750	0.698650	0.698650	0.698600	0.698501	0.698501	0.698351	0.698301	0.698401	0.698301	0.698151	0.698151	0.698151	0.698001	0.697951	0.697901	0.697851	0.697951	0.697851	0.697751	0.697651	0.697701	0.697601	0.697651	0.697501	0.697551	0.697401
-132.000000	0.686799	0.688099	0.689350	0.690650	0.704051	0.687850	0.692600	0.691950	0.691850	0.691750	0.691650	0.691600	0.691550	0.691450	0.691450	0.691400	0.691300	0.691201	0.691151	0.691151	0.691051	0.691101	0.691001	0.691001	0.690851	0.690851	0.690801	0.690751	0.690701	0.690651	0.690701	0.690601	0.690501	0.690551	0.690451	0.690351	0.690401	0.690251	0.690301
-131.000000	0.678599	0.679899	0.681350	0.682500	0.695601	0.679900	0.684500	0.683850	0.683750	0.683650	0.683550	0.683500	0.683450	0.683350	0.683350	0.683300	0.683200	0.683250	0.683101	0.683051	0.683151	0.683051	0.682951	0.682951	0.682951	0.682751	0.682751	0.682701	0.682651	0.682701	0.682651	0.682551	0.682451	0.682501	0.682401	0.682451	0.682301	0.682351	0.682201
-130.000000	0.669699	0.670999	0.672300	0.673450	0.686601	0.671000	0.675450	0.674950	0.674700	0.674650	0.674700	0.674600	0.674600	0.674500	0.674350	0.674300	0.674350	0.674250	0.674200	0.674201	0.674151	0.674201	0.674051	0.674101	0.673901	0.673901	0.673851	0.673851	0.673751	0.673701	0.673651	0.673701	0.673601	0.673501	0.673551	0.673401	0.673451	0.673351	0.673351
-129.000000	0.659999	0.661199	0.662500	0.663650	0.670900	0.661350	0.665650	0.665150	0.664900	0.665000	0.664900	0.664800	0.664800	0.664700	0.664700	0.664650	0.664550	0.664550	0.664400	0.664400	0.664501	0.664401	0.664251	0.664301	0.664251	0.664251	0.664051	0.664051	0.664101	0.664051	0.664001	0.663901	0.663951	0.663851	0.663751	0.663751	0.663651	0.663651	0.663551
-128.000000	0.649299	0.650649	0.651950	0.653100	0.660350	0.650950	0.655050	0.654600	0.654500	0.654400	0.654300	0.654200	0.654200	0.654100	0.654100	0.654050	0.653950	0.653950	0.653950	0.653950	0.653900	0.653800	0.653801	0.653701	0.653651	0.653651	0.653601	0.653551	0.653501	0.653451	0.653351	0.653451	0.653351	0.653251	0.653251	0.653151	0.653201	0.653051	0.653101
-127.000000	0.638049	0.639299	0.640600	0.641750	0.648800	0.639750	0.643550	0.643200	0.643100	0.643000	0.642900	0.642800	0.642800	0.642850	0.642700	0.642650	0.642700	0.642550	0.642550	0.642500	0.642500	0.642500	0.642400	0.642401	0.642401	0.642251	0.642201	0.642151	0.642251	0.642201	0.642101	0.642001	0.642051	0.641951	0.641851	0.641901	0.641751	0.641801	0.641801
-126.000000	0.625949	0.627049	0.628450	0.629600	0.636600	0.627600	0.631550	0.631000	0.630900	0.630800	0.630850	0.630750	0.630750	0.630650	0.630650	0.630600	0.630500	0.630500	0.630500	0.630450	0.630400	0.630450	0.630300	0.630350	0.630150	0.630151	0.630101	0.630051	0.630001	0.630101	0.630001	0.629901	0.629951	0.629851	0.629901	0.629801	0.629801	0.629701	0.629701
-125.000000	0.613149	0.614349	0.615550	0.616700	0.623650	0.614950	0.618550	0.618200	0.618050	0.617950	0.618000	0.617900	0.617850	0.617750	0.617750	0.617700	0.617750	0.617600	0.617600	0.617550	0.617650	0.617550	0.617550	0.617400	0.617400	0.617400	0.617350	0.617301	0.617251	0.617151	0.617101	0.617151	0.617051	0.617101	0.616951	0.617001	0.616851	0.616901	0.616751
-124.000000	0.599549	0.600699	0.601999	0.603100	0.609950	0.601300	0.604900	0.604500	0.604400	0.604400	0.604300	0.604350	0.604300	0.604200	0.604150	0.604100	0.604150	0.604000	0.604000	0.603950	0.604050	0.603950	0.603950	0.603800	0.603800	0.603750	0.603750	0.603700	0.603600	0.603701	0.603601	0.603501	0.603551	0.603451	0.603501	0.603351	0.603401	0.603251	0.603301
-123.000000	0.585349	0.586549	0.587649	0.588850	0.595500	0.587150	0.590600	0.590300	0.590150	0.590050	0.590050	0.590100	0.590050	0.589950	0.589900	0.589850	0.589900	0.589900	0.589700	0.589800	0.589750	0.589650	0.589650	0.589650	0.589650	0.589600	0.589550	0.589500	0.589450	0.589350	0.589300	0.589351	0.589251	0.589251	0.589151	0.589201	0.589051	0.589051	0.589101
-122.000000	0.570449	0.571549	0.572749	0.573950	0.580450	0.572300	0.575700	0.575250	0.575100	0.575100	0.575100	0.575150	0.575100	0.574950	0.574950	0.575000	0.574900	0.574900	0.574850	0.574800	0.574750	0.574800	0.574800	0.574650	0.574600	0.574600	0.574550	0.574500	0.574550	0.574500	0.574400	0.574450	0.574350	0.574350	0.574251	0.574251	0.574151	0.574151	0.574151
-121.000000	0.554899	0.556049	0.557199	0.558300	0.564700	0.557900	0.560000	0.559650	0.559650	0.559500	0.559500	0.559500	0.559400	0.559450	0.559400	0.559300	0.559350	0.559300	0.559300	0.559200	0.559150	0.559200	0.559200	0.559050	0.559000	0.559000	0.558950	0.559000	0.558950	0.558850	0.558900	0.558800	0.558700	0.558750	0.558750	0.558650	0.558650	0.558651	0.558551
-120.000000	0.538849	0.539899	0.541099	0.543250	0.548400	0.541750	0.543850	0.543500	0.543300	0.543300	0.543250	0.543250	0.543300	0.543150	0.543150	0.543200	0.543050	0.543050	0.543000	0.543050	0.543000	0.543050	0.543050	0.542850	0.542850	0.542800	0.542750	0.542800	0.542750	0.542650	0.542700	0.542600	0.542650	0.542500	0.542550	0.542400	0.542400	0.542450	0.542450
-119.000000	0.522099	0.523149	0.524249	0.526300	0.531400	0.525050	0.527000	0.526600	0.526550	0.526500	0.526450	0.526450	0.526500	0.526500	0.526400	0.526300	0.526300	0.526300	0.526250	0.526150	0.526250	0.526250	0.526100	0.526100	0.526050	0.526000	0.526100	0.526000	0.525950	0.525850	0.525900	0.525800	0.525800	0.525850	0.525700	0.525750	0.525750	0.525600	0.525600
-118.000000	0.504799	0.505849	0.506849	0.508950	0.513900	0.507600	0.507250	0.509250	0.509200	0.509100	0.509200	0.509150	0.509050	0.509050	0.508950	0.509000	0.509000	0.508950	0.508900	0.508800	0.508900	0.508900	0.508850	0.508700	0.508650	0.508750	0.508700	0.508600	0.508500	0.508550	0.508450	0.508500	0.508400	0.508400	0.508400	0.508300	0.508300	0.508300	0.508300
-117.000000	0.486899	0.487999	0.489049	0.491050	0.495700	0.489700	0.489350	0.491350	0.491200	0.491250	0.491200	0.491150	0.491150	0.491100	0.491050	0.491050	0.491050	0.491000	0.490900	0.490950	0.491050	0.490900	0.490850	0.490850	0.490800	0.490750	0.490800	0.490700	0.490650	0.490700	0.490550	0.490600	0.490600	0.490500	0.490500	0.490500	0.490350	0.490350	0.490350
-116.000000	0.468649	0.469549	0.470649	0.470550	0.477150	0.471350	0.471000	0.472900	0.472750	0.472800	0.472850	0.472750	0.472800	0.472700	0.472600	0.472650	0.472600	0.472550	0.472600	0.472500	0.472550	0.472550	0.472550	0.472500	0.472450	0.472350	0.472300	0.472350	0.472250	0.472300	0.472200	0.472200	0.472050	0.472100	0.472100	0.472100	0.472100	0.471950	0.471950
-115.000000	0.449749	0.450799	0.452450	0.451700	0.458000	0.452550	0.452150	0.454050	0.453850	0.453850	0.453850	0.453750	0.453750	0.453850	0.453700	0.453700	0.453700	0.453600	0.453650	0.453550	0.453600	0.453600	0.453550	0.453500	0.453450	0.453500	0.453400	0.453350	0.453350	0.453400	0.453300	0.453300	0.453150	0.453200	0.453200	0.453200	0.453150	0.453150	0.453000
-114.000000	0.430599	0.431449	0.433200	0.432350	0.438500	0.433100	0.433350	0.434500	0.434450	0.434400	0.434400	0.434450	0.434400	0.434300	0.434300	0.434300	0.434250	0.434300	0.434200	0.434250	0.434250	0.434250	0.434200	0.434150	0.434050	0.434150	0.434050	0.434100	0.434000	0.434000	0.433900	0.433900	0.433900	0.433900	0.433750	0.433750	0.433750	0.433700	0.433700
-113.000000	0.410949	0.412349	0.411850	0.412550	0.418350	0.413400	0.413500	0.413250	0.414650	0.414600	0.414550	0.414550	0.414500	0.414550	0.414550	0.414500	0.414450	0.414500	0.414400	0.414400	0.414400	0.414400	0.414350	0.414250	0.414350	0.414250	0.414300	0.414200	0.414200	0.414100	0.414100	0.414100	0.414100	0.414100	0.413950	0.413950	0.413900	0.413900	0.413900
-112.000000	0.391399	0.392099	0.391800	0.392400	0.398000	0.393100	0.393400	0.393150	0.394350	0.394400	0.394350	0.394350	0.394400	0.394250	0.394250	0.394200	0.394250	0.394150	0.394200	0.394150	0.394200	0.394150	0.394100	0.394150	0.394050	0.394100	0.394000	0.394050	0.393900	0.393950	0.393950	0.393950	0.393800	0.393800	0.393750	0.393750	0.393700	0.393700	0.393650
-111.000000	0.370899	0.370499	0.371200	0.371850	0.377100	0.372500	0.372800	0.372900	0.372600	0.373850	0.373750	0.373700	0.373750	0.373750	0.373700	0.373650	0.373700	0.373550	0.373550	0.373550	0.373550	0.373500	0.373550	0.373500	0.373400	0.373450	0.373450	0.373350	0.373350	0.373350	0.373350	0.373200	0.373200	0.373200	0.373150	0.373150	0.373100	0.373100	0.373050
-110.000000	0.348999	0.349599	0.350400	0.350900	0.355950	0.351600	0.351800	0.352000	0.352000	0.351800	0.352750	0.352800	0.352700	0.352700	0.352600	0.352700	0.352700	0.352550	0.352550	0.352550	0.352650	0.352600	0.352500	0.352550	0.352450	0.352500	0.352500	0.352400	0.352400	0.352400	0.352400	0.352350	0.352350	0.352350	0.352300	0.352250	0.352250	0.352200	0.352150
-109.000000	0.327749	0.328399	0.329200	0.329700	0.334400	0.330350	0.330500	0.330650	0.330650	0.330700	0.330550	0.331400	0.331400	0.331350	0.331400	0.331300	0.331300	0.331300	0.331250	0.331250	0.331350	0.331250	0.331150	0.331200	0.331250	0.331100	0.331150	0.331150	0.331150	0.331150	0.331100	0.331100	0.331050	0.331050	0.331000	0.331000	0.330950	0.330900	0.330850
-108.000000	0.306449	0.306999	0.307600	0.308150	0.312550	0.308750	0.309000	0.309050	0.309150	0.309200	0.309250	0.309250	0.309000	0.309700	0.309750	0.309800	0.309750	0.309750	0.309700	0.309650	0.309750	0.309650	0.309700	0.309600	0.309600	0.309600	0.309450	0.309450	0.309450	0.309450	0.309400	0.309400	0.309350	0.309300	0.309450	0.309400	0.309350	0.309300	0.309250
-107.000000	0.284699	0.285300	0.285900	0.286400	0.290450	0.286850	0.287000	0.287200	0.287250	0.287200	0.287250	0.287400	0.287350	0.287400	0.287200	0.287800	0.287800	0.287750	0.287850	0.287750	0.287850	0.287750	0.287750	0.287800	0.287650	0.287650	0.287650	0.287650	0.287600	0.287600	0.287550	0.287500	0.287500	0.287450	0.287550	0.287500	0.287450	0.287400	0.287500
-106.000000	0.262699	0.263200	0.263900	0.264250	0.268050	0.264800	0.264900	0.265000	0.265000	0.265100	0.265100	0.265200	0.265250	0.265150	0.265200	0.265300	0.265250	0.265000	0.265050	0.265550	0.265650	0.265650	0.265550	0.265550	0.265550	0.265500	0.265500	0.265500	0.265450	0.265400	0.265400	0.265350	0.265450	0.265400	0.265350	0.265300	0.265350	0.265300	0.265250
-105.000000	0.240549	0.241050	0.241550	0.241950	0.245500	0.242400	0.242600	0.242650	0.242750	0.242800	0.242800	0.242850	0.242900	0.242900	0.242900	0.242850	0.242950	0.242850	0.242900	0.242800	0.242850	0.242850	0.242650	0.242650	0.242650	0.243200	0.243200	0.243150	0.243100	0.243100	0.243050	0.243000	0.243050	0.243000	0.242950	0.243050	0.242950	0.242900	0.243000
-104.000000	0.218149	0.218650	0.219050	0.219450	0.222600	0.219850	0.220000	0.220150	0.220200	0.220200	0.220300	0.220300	0.220300	0.220300	0.220300	0.220350	0.220250	0.220300	0.220350	0.220200	0.220250	0.220250	0.220250	0.220200	0.220350	0.220300	0.220250	0.220200	0.220150	0.220100	0.220050	0.220450	0.220500	0.220450	0.220350	0.220450	0.220400	0.220450	0.220350
-103.000000	0.195650	0.196050	0.196400	0.196750	0.199650	0.197100	0.197300	0.197400	0.197400	0.197350	0.197400	0.197400	0.197550	0.197500	0.197600	0.197500	0.197550	0.197550	0.197600	0.197600	0.197600	0.197600	0.197550	0.197550	0.197500	0.197450	0.197550	0.197500	0.197400	0.197500	0.197450	0.197350	0.197450	0.197350	0.197450	0.197200	0.197300	0.197650	0.197700
-102.000000	0.173000	0.173250	0.173700	0.173900	0.176500	0.174350	0.174450	0.174500	0.174450	0.174500	0.174500	0.174600	0.174550	0.174600	0.174550	0.174600	0.174600	0.174650	0.174600	0.174600	0.174600	0.174600	0.174700	0.174650	0.174600	0.174650	0.174600	0.174550	0.174600	0.174550	0.174600	0.174550	0.174600	0.174500	0.174600	0.174500	0.174550	0.174450	0.174400
-101.000000	0.150150	0.150400	0.150750	0.150950	0.153100	0.151300	0.151350	0.151500	0.151550	0.151550	0.151500	0.151600	0.151500	0.151550	0.151600	0.151600	0.151600	0.151600	0.151600	0.151550	0.151700	0.151650	0.151550	0.151650	0.151600	0.151500	0.151600	0.151500	0.151600	0.151500	0.151550	0.151500	0.151550	0.151600	0.151500	0.151550	0.151450	0.151500	0.151550
-100.000000	0.127200	0.127450	0.127750	0.127900	0.129800	0.128250	0.128200	0.128250	0.128400	0.128350	0.128450	0.128350	0.128350	0.128350	0.128400	0.128400	0.128500	0.128500	0.128450	0.128400	0.128500	0.128450	0.128500	0.128450	0.128500	0.128450	0.128500	0.128400	0.128450	0.128350	0.128400	0.128450	0.128350	0.128400	0.128450	0.128350	0.128400	0.128450	0.128350
-99.000000	0.104200	0.104450	0.104650	0.104800	0.106250	0.105050	0.105100	0.105050	0.105150	0.105200	0.105100	0.105100	0.105250	0.105250	0.105250	0.105200	0.105300	0.105250	0.105200	0.105300	0.105250	0.105300	0.105200	0.105250	0.105200	0.105250	0.105300	0.105200	0.105250	0.105300	0.105150	0.105200	0.105250	0.105150	0.105200	0.105200	0.105250	0.105150	0.105150
-98.000000	0.081200	0.081300	0.081450	0.081550	0.082750	0.081750	0.081850	0.081900	0.081950	0.081950	0.081950	0.081950	0.081900	0.082000	0.082000	0.081950	0.082000	0.081950	0.082000	0.082050	0.082000	0.082050	0.081950	0.082000	0.082050	0.081900	0.081950	0.082000	0.082050	0.081900	0.081950	0.082000	0.082000	0.081900	0.081900	0.081950	0.082000	0.082000	0.081900
-97.000000	0.058150	0.058200	0.058300	0.058400	0.059300	0.058450	0.058500	0.058650	0.058650	0.058600	0.058550	0.058650	0.058550	0.058650	0.058750	0.058650	0.058700	0.058750	0.058650	0.058700	0.058750	0.058650	0.058700	0.058700	0.058750	0.058650	0.058650	0.058700	0.058700	0.058750	0.058750	0.058650	0.058650	0.058650	0.058700	0.058700	0.058700	0.058750	0.058600
-96.000000	0.035100	0.035000	0.035150	0.035200	0.035650	0.035200	0.035300	0.035250	0.035300	0.035400	0.035300	0.035350	0.035400	0.035250	0.035350	0.035400	0.035450	0.035450	0.035350	0.035350	0.035400	0.035400	0.035450	0.035450	0.035450	0.035350	0.035350	0.035350	0.035400	0.035400	0.035400	0.035400	0.035450	0.035450	0.035450	0.035450	0.035350	0.035350	0.035350
-95.000000	0.012000	0.011900	0.011950	0.012000	0.012200	0.011900	0.011950	0.011950	0.012000	0.012000	0.012000	0.012050	0.012050	0.012050	0.012150	0.012150	0.012150	0.012150	0.012150	0.012150	0.012200	0.012200	0.012200	0.012200	0.012200	0.012200	0.012200	0.012200	0.012200	0.012050	0.012050	0.012050	0.012050	0.012050	0.012050	0.012100	0.012100	0.012100	0.012100
-94.000000	-0.011050	-0.011150	-0.011200	-0.011200	-0.011300	-0.011200	-0.011250	-0.011150	-0.011200	-0.011250	-0.011250	-0.011300	-0.011150	-0.011200	-0.011150	-0.011150	-0.011150	-0.011200	-0.011200	-0.011050	-0.011050	-0.011050	-0.011100	-0.011100	-0.011100	-0.011100	-0.011100	-0.011150	-0.011150	-0.011150	-0.011150	-0.011150	-0.011150	-0.011000	-0.011050	-0.011050	-0.011050	-0.011050	-0.011050
-93.000000	-0.034000	-0.034150	-0.034250	-0.034300	-0.034800	-0.034400	-0.034350	-0.034350	-0.034400	-0.034350	-0.034400	-0.034350	-0.034400	-0.034450	-0.034250	-0.034300	-0.034350	-0.034400	-0.034250	-0.034300	-0.034300	-0.034350	-0.034250	-0.034250	-0.034300	-0.034300	-0.034300	-0.034350	-0.034200	-0.034250	-0.034250	-0.034250	-0.034300	-0.034300	-0.034300	-0.034150	-0.034200	-0.034200	-0.034200
-92.000000	-0.056850	-0.057000	-0.057200	-0.057250	-0.058050	-0.057450	-0.057500	-0.057550	-0.057550	-0.057500	-0.057450	-0.057400	-0.057500	-0.057450	-0.057450	-0.057350	-0.057400	-0.057350	-0.057400	-0.057450	-0.057350	-0.057350	-0.057400	-0.057300	-0.057350	-0.057400	-0.057400	-0.057300	-0.057300	-0.057350	-0.057400	-0.057400	-0.057300	-0.057300	-0.057350	-0.057350	-0.057350	-0.057250	-0.057250
-91.000000	-0.079650	-0.079800	-0.080050	-0.080300	-0.081400	-0.080400	-0.080400	-0.080500	-0.080400	-0.080400	-0.080450	-0.080400	-0.080550	-0.080500	-0.080350	-0.080450	-0.080400	-0.080350	-0.080400	-0.080350	-0.080400	-0.080300	-0.080350	-0.080400	-0.080300	-0.080350	-0.080400	-0.080300	-0.080350	-0.080400	-0.080250	-0.080300	-0.080350	-0.080200	-0.080250	-0.080300	-0.080300	-0.080350	-0.080200
-90.000000	-0.102300	-0.102450	-0.102850	-0.102950	-0.104450	-0.103250	-0.103200	-0.103350	-0.103300	-0.103400	-0.103300	-0.103300	-0.103350	-0.103300	-0.103200	-0.103200	-0.103300	-0.103250	-0.103200	-0.103300	-0.103200	-0.103300	-0.103200	-0.103300	-0.103200	-0.103250	-0.103150	-0.103200	-0.103100	-0.103150	-0.103200	-0.103100	-0.103150	-0.103200	-0.103100	-0.103150	-0.103150	-0.103050	-0.103100
-89.000000	-0.124800	-0.125100	-0.125400	-0.125650	-0.127450	-0.125950	-0.125950	-0.126000	-0.126050	-0.126000	-0.126100	-0.126000	-0.126050	-0.126050	-0.126000	-0.126000	-0.125950	-0.125950	-0.125900	-0.125850	-0.125950	-0.125900	-0.125850	-0.125950	-0.125850	-0.125950	-0.125850	-0.125900	-0.125850	-0.125900	-0.125800	-0.125850	-0.125750	-0.125800	-0.125850	-0.125750	-0.125800	-0.125850	-0.125750
-88.000000	-0.147050	-0.147400	-0.147750	-0.148050	-0.150250	-0.148400	-0.148450	-0.148450	-0.148550	-0.148550	-0.148550	-0.148650	-0.148550	-0.148600	-0.148550	-0.148400	-0.148400	-0.148400	-0.148400	-0.148550	-0.148500	-0.148450	-0.148400	-0.148350	-0.148450	-0.148400	-0.148450	-0.148400	-0.148300	-0.148400	-0.148300	-0.148350	-0.148300	-0.148350	-0.148250	-0.148300	-0.148350	-0.148250	-0.148300
-87.000000	-0.169150	-0.169600	-0.169900	-0.170350	-0.172700	-0.170650	-0.170800	-0.170850	-0.170850	-0.170900	-0.170950	-0.170900	-0.170850	-0.170950	-0.170750	-0.170800	-0.170850	-0.170850	-0.170850	-0.170850	-0.170850	-0.170800	-0.170800	-0.170750	-0.170700	-0.170800	-0.170750	-0.170650	-0.170750	-0.170700	-0.170600	-0.170700	-0.170600	-0.170700	-0.170600	-0.170650	-0.170550	-0.170650	-0.170550
-86.000000	-0.191099	-0.191550	-0.192050	-0.192400	-0.195150	-0.192700	-0.192800	-0.192950	-0.192950	-0.193050	-0.193000	-0.193000	-0.193000	-0.193100	-0.192950	-0.193000	-0.192900	-0.192950	-0.192950	-0.192950	-0.193000	-0.192950	-0.192950	-0.192950	-0.192900	-0.192850	-0.192800	-0.192750	-0.192850	-0.192800	-0.192750	-0.192800	-0.192750	-0.192650	-0.192750	-0.192650	-0.192750	-0.192650	-0.192700
-85.000000	-0.212849	-0.213300	-0.213750	-0.214200	-0.217250	-0.214600	-0.214750	-0.214800	-0.214900	-0.214900	-0.214850	-0.214900	-0.214950	-0.214900	-0.214800	-0.214850	-0.214800	-0.214850	-0.214750	-0.214750	-0.214800	-0.214800	-0.214800	-0.214800	-0.214750	-0.214750	-0.214700	-0.214650	-0.214600	-0.214700	-0.214650	-0.214600	-0.214700	-0.214650	-0.214550	-0.214650	-0.214550	-0.214500	-0.214550
-84.000000	-0.234149	-0.234750	-0.235250	-0.235750	-0.239200	-0.236200	-0.236300	-0.236400	-0.236500	-0.236600	-0.236600	-0.236500	-0.236550	-0.236550	-0.236450	-0.236400	-0.236500	-0.236450	-0.236350	-0.236400	-0.236450	-0.236450	-0.236300	-0.236300	-0.236300	-0.236300	-0.236250	-0.236250	-0.236350	-0.236300	-0.236300	-0.236250	-0.236200	-0.236250	-0.236200	-0.236150	-0.236250	-0.236150	-0.236100
-83.000000	-0.255349	-0.255949	-0.256500	-0.257000	-0.260650	-0.257500	-0.257650	-0.257850	-0.257850	-0.257800	-0.257850	-0.257950	-0.257900	-0.257900	-0.257850	-0.257800	-0.257800	-0.257750	-0.257800	-0.257700	-0.257800	-0.257800	-0.257700	-0.257700	-0.257700	-0.257700	-0.257700	-0.257650	-0.257650	-0.257600	-0.257600	-0.257550	-0.257650	-0.257600	-0.257550	-0.257500	-0.257600	-0.257500	-0.257450
-82.000000	-0.276299	-0.276849	-0.277450	-0.277950	-0.282000	-0.278550	-0.278750	-0.278800	-0.278900	-0.278900	-0.278950	-0.278950	-0.278900	-0.279000	-0.278900	-0.278900	-0.278900	-0.278850	-0.278800	-0.278900	-0.278800	-0.278850	-0.278750	-0.278800	-0.278800	-0.278800	-0.278800	-0.278650	-0.278650	-0.278600	-0.278600	-0.278700	-0.278650	-0.278600	-0.278600	-0.278550	-0.278500	-0.278550	-0.278500
-81.000000	-0.296849	-0.297499	-0.298150	-0.298650	-0.302950	-0.299250	-0.299400	-0.299550	-0.299650	-0.299700	-0.299650	-0.299700	-0.299650	-0.299750	-0.299550	-0.299600	-0.299600	-0.299550	-0.299550	-0.299650	-0.299550	-0.299500	-0.299550	-0.299550	-0.299450	-0.299450	-0.299450	-0.299500	-0.299450	-0.299450	-0.299450	-0.299400	-0.299400	-0.299350	-0.299300	-0.299300	-0.299250	-0.299200	-0.299300
-80.000000	-0.317099	-0.317749	-0.318450	-0.319100	-0.323600	-0.319750	-0.319800	-0.320000	-0.320000	-0.320050	-0.320050	-0.320150	-0.320150	-0.320100	-0.320050	-0.319950	-0.320000	-0.320000	-0.319950	-0.319950	-0.320050	-0.319950	-0.319900	-0.319950	-0.319950	-0.319850	-0.319850	-0.319900	-0.319900	-0.319750	-0.319700	-0.319700	-0.319700	-0.319650	-0.319650	-0.319750	-0.319700	-0.319650	-0.319600
-79.000000	-0.336899	-0.337599	-0.338350	-0.338950	-0.343850	-0.339650	-0.339900	-0.340000	-0.340050	-0.340200	-0.340250	-0.340150	-0.340200	-0.340200	-0.340000	-0.340100	-0.340150	-0.340000	-0.340000	-0.339950	-0.340100	-0.340050	-0.339950	-0.340000	-0.339900	-0.339950	-0.340000	-0.339850	-0.339850	-0.339900	-0.339900	-0.339850	-0.339850	-0.339850	-0.339800	-0.339800	-0.339750	-0.339700	-0.339650
-78.000000	-0.356399	-0.357199	-0.357999	-0.358600	-0.363850	-0.359350	-0.359500	-0.359650	-0.359750	-0.359750	-0.359850	-0.359950	-0.359850	-0.359850	-0.359700	-0.359800	-0.359700	-0.359750	-0.359750	-0.359750	-0.359750	-0.359700	-0.359650	-0.359700	-0.359600	-0.359650	-0.359550	-0.359600	-0.359600	-0.359450	-0.359450	-0.359450	-0.359450	-0.359450	-0.359450	-0.359400	-0.359400	-0.359350	-0.359300
-77.000000	-0.375599	-0.376349	-0.377299	-0.377900	-0.383300	-0.378650	-0.378850	-0.379050	-0.379050	-0.379100	-0.379200	-0.379200	-0.379250	-0.379150	-0.379000	-0.379150	-0.379050	-0.379100	-0.379000	-0.379000	-0.379000	-0.378950	-0.379050	-0.379000	-0.378900	-0.378950	-0.378850	-0.378900	-0.378750	-0.378800	-0.378800	-0.378800	-0.378800	-0.378650	-0.378650	-0.378650	-0.378600	-0.378600	-0.378550
-76.000000	-0.394299	-0.395099	-0.396049	-0.396800	-0.402400	-0.397550	-0.397700	-0.397950	-0.397950	-0.398050	-0.398000	-0.398050	-0.398150	-0.398050	-0.397950	-0.397900	-0.398000	-0.397900	-0.397950	-0.397950	-0.398000	-0.397950	-0.397950	-0.397850	-0.397800	-0.397850	-0.397750	-0.397800	-0.397700	-0.397750	-0.397750	-0.397600	-0.397600	-0.397650	-0.397600	-0.397600	-0.397600	-0.397600	-0.397550
-75.000000	-0.412649	-0.413499	-0.414499	-0.415200	-0.421150	-0.415950	-0.416150	-0.416450	-0.416500	-0.416450	-0.416600	-0.416500	-0.416650	-0.416550	-0.416450	-0.416450	-0.416400	-0.416350	-0.416400	-0.416450	-0.416450	-0.416450	-0.416400	-0.416350	-0.416300	-0.416250	-0.416300	-0.416200	-0.416250	-0.416150	-0.416150	-0.416200	-0.416050	-0.416050	-0.416050	-0.416050	-0.416050	-0.416000	-0.416000
-74.000000	-0.430549	-0.431449	-0.432449	-0.433250	-0.439350	-0.434000	-0.434250	-0.434450	-0.434550	-0.434550	-0.434550	-0.434650	-0.434650	-0.434600	-0.434500	-0.434500	-0.434450	-0.434400	-0.434450	-0.434350	-0.434400	-0.434400	-0.434400	-0.434350	-0.434300	-0.434400	-0.434300	-0.434200	-0.434250	-0.434150	-0.434200	-0.434200	-0.434100	-0.434100	-0.434100	-0.434100	-0.433950	-0.433950	-0.433950
-73.000000	-0.448099	-0.448899	-0.449899	-0.450800	-0.457200	-0.451550	-0.451850	-0.451900	-0.452050	-0.452100	-0.452150	-0.452250	-0.452250	-0.452200	-0.452150	-0.452000	-0.452000	-0.452100	-0.452050	-0.451950	-0.452000	-0.452000	-0.452000	-0.451950	-0.451900	-0.451850	-0.451950	-0.451850	-0.451750	-0.451800	-0.451700	-0.451750	-0.451750	-0.451650	-0.451650	-0.451650	-0.451650	-0.451650	-0.451500
-72.000000	-0.465049	-0.465899	-0.466999	-0.467750	-0.474450	-0.468750	-0.468950	-0.469050	-0.469250	-0.469300	-0.469400	-0.469350	-0.469400	-0.469350	-0.469150	-0.469200	-0.469200	-0.469150	-0.469100	-0.469150	-0.469050	-0.469100	-0.469100	-0.469050	-0.469000	-0.468950	-0.468900	-0.469000	-0.468900	-0.468800	-0.468850	-0.468900	-0.468750	-0.468800	-0.468800	-0.468650	-0.468700	-0.468700	-0.468650
-71.000000	-0.481599	-0.482449	-0.483549	-0.484350	-0.491350	-0.485350	-0.485600	-0.485750	-0.485800	-0.485850	-0.485950	-0.485950	-0.486000	-0.486000	-0.485800	-0.485850	-0.485850	-0.485850	-0.485800	-0.485700	-0.485800	-0.485650	-0.485650	-0.485650	-0.485650	-0.485600	-0.485550	-0.485600	-0.485550	-0.485450	-0.485500	-0.485400	-0.485400	-0.485450	-0.485300	-0.485350	-0.485350	-0.485200	-0.485200
-70.000000	-0.497499	-0.498549	-0.499599	-0.500500	-0.507600	-0.501450	-0.501600	-0.501800	-0.502000	-0.502100	-0.502100	-0.502100	-0.502150	-0.502200	-0.501950	-0.501900	-0.501900	-0.501900	-0.501850	-0.501800	-0.501900	-0.501900	-0.501750	-0.501750	-0.501750	-0.501700	-0.501650	-0.501600	-0.501650	-0.501600	-0.501650	-0.501550	-0.501600	-0.501450	-0.501500	-0.501500	-0.501350	-0.501400	-0.501400
-69.000000	-0.512999	-0.514049	-0.515199	-0.516050	-0.523400	-0.516950	-0.517300	-0.517500	-0.517600	-0.517600	-0.517750	-0.517750	-0.517700	-0.517700	-0.517500	-0.517600	-0.517450	-0.517450	-0.517450	-0.517550	-0.517500	-0.517500	-0.517400	-0.517400	-0.517350	-0.517350	-0.517300	-0.517250	-0.517150	-0.517250	-0.517150	-0.517200	-0.517100	-0.517150	-0.517000	-0.517050	-0.517050	-0.516900	-0.516900
-68.000000	-0.528099	-0.529099	-0.530199	-0.531150	-0.538600	-0.532150	-0.532350	-0.532600	-0.532600	-0.532750	-0.532750	-0.532800	-0.532900	-0.532800	-0.532550	-0.532650	-0.532550	-0.532550	-0.532550	-0.532500	-0.532600	-0.532500	-0.532500	-0.532550	-0.532350	-0.532350	-0.532300	-0.532400	-0.532350	-0.532250	-0.532200	-0.532250	-0.532150	-0.532200	-0.532050	-0.532100	-0.532100	-0.531950	-0.532000
-67.000000	-0.542449	-0.543449	-0.544649	-0.545650	-0.553350	-0.546600	-0.546850	-0.547100	-0.547100	-0.547250	-0.547300	-0.547350	-0.547350	-0.547400	-0.547200	-0.547100	-0.547200	-0.547050	-0.547050	-0.547000	-0.547100	-0.547000	-0.547050	-0.547050	-0.546900	-0.546850	-0.546850	-0.546800	-0.546900	-0.546800	-0.546750	-0.546800	-0.546700	-0.546750	-0.546650	-0.546650	-0.546550	-0.546550	-0.546550
-66.000000	-0.556449	-0.557399	-0.558649	-0.559550	-0.567500	-0.560650	-0.560850	-0.561000	-0.561200	-0.561200	-0.561250	-0.561350	-0.561300	-0.561350	-0.561150	-0.561150	-0.561050	-0.561050	-0.561050	-0.561050	-0.561000	-0.561050	-0.560950	-0.560950	-0.560950	-0.560950	-0.560900	-0.560850	-0.560800	-0.560750	-0.560650	-0.560750	-0.560650	-0.560700	-0.560550	-0.560600	-0.560500	-0.560500	-0.560500
-65.000000	-0.569699	-0.570749	-0.571949	-0.572900	-0.581050	-0.574050	-0.574150	-0.574500	-0.574500	-0.574550	-0.574650	-0.574700	-0.574700	-0.574750	-0.574550	-0.574550	-0.574450	-0.574500	-0.574500	-0.574450	-0.574400	-0.574350	-0.574400	-0.574400	-0.574250	-0.574250	-0.574200	-0.574150	-0.574100	-0.574050	-0.574150	-0.574050	-0.573950	-0.574000	-0.573900	-0.573950	-0.573950	-0.573850	-0.573850
-64.000000	-0.582399	-0.583549	-0.584699	-0.585700	-0.594000	-0.586750	-0.587050	-0.587200	-0.587400	-0.587500	-0.587550	-0.587500	-0.587500	-0.587550	-0.587350	-0.587350	-0.587250	-0.587300	-0.587300	-0.587300	-0.587250	-0.587150	-0.587200	-0.587100	-0.587100	-0.587100	-0.587050	-0.587050	-0.587000	-0.586900	-0.586850	-0.586900	-0.586850	-0.586750	-0.586800	-0.586650	-0.586700	-0.586700	-0.586600
-63.000000	-0.594599	-0.595699	-0.596999	-0.597900	-0.606400	-0.599000	-0.599300	-0.599550	-0.599600	-0.599650	-0.599750	-0.599700	-0.599700	-0.599750	-0.599550	-0.599550	-0.599450	-0.599500	-0.599400	-0.599350	-0.599500	-0.599400	-0.599300	-0.599350	-0.599350	-0.599350	-0.599150	-0.599150	-0.599100	-0.599200	-0.599100	-0.599050	-0.598950	-0.599000	-0.598900	-0.598950	-0.598800	-0.598850	-0.598850
-62.000000	-0.606249	-0.607249	-0.608499	-0.609550	-0.618050	-0.610550	-0.610900	-0.611100	-0.611150	-0.611250	-0.611350	-0.611300	-0.611300	-0.611400	-0.611050	-0.611000	-0.611100	-0.611000	-0.611000	-0.611000	-0.611000	-0.611050	-0.610950	-0.611000	-0.610850	-0.610850	-0.610850	-0.610800	-0.610750	-0.610700	-0.610650	-0.610700	-0.610600	-0.610550	-0.610600	-0.610450	-0.610501	-0.610401	-0.610401
-61.000000	-0.617099	-0.618299	-0.619549	-0.620500	-0.629200	-0.621550	-0.621900	-0.622100	-0.622200	-0.622300	-0.622250	-0.622350	-0.622350	-0.622300	-0.622100	-0.622050	-0.622000	-0.622050	-0.621900	-0.621900	-0.622050	-0.621950	-0.621850	-0.621900	-0.621900	-0.621750	-0.621750	-0.621750	-0.621700	-0.621650	-0.621550	-0.621650	-0.621550	-0.621450	-0.621501	-0.621401	-0.621451	-0.621451	-0.621351
-60.000000	-0.627399	-0.628499	-0.629799	-0.630750	-0.639600	-0.632000	-0.632200	-0.632450	-0.632500	-0.632600	-0.632700	-0.632650	-0.632700	-0.632650	-0.632400	-0.632400	-0.632350	-0.632400	-0.632250	-0.632250	-0.632200	-0.632300	-0.632200	-0.632250	-0.632100	-0.632100	-0.632100	-0.632050	-0.632050	-0.632000	-0.631900	-0.632000	-0.631901	-0.631801	-0.631851	-0.631751	-0.631801	-0.631701	-0.631701
-59.000000	-0.637199	-0.638299	-0.639499	-0.640500	-0.649400	-0.641550	-0.641900	-0.642000	-0.642250	-0.642350	-0.642300	-0.642450	-0.642450	-0.642400	-0.642000	-0.642000	-0.642100	-0.642000	-0.642000	-0.642000	-0.642000	-0.641900	-0.641950	-0.641850	-0.641850	-0.641850	-0.641700	-0.641700	-0.641650	-0.641600	-0.641701	-0.641601	-0.641551	-0.641601	-0.641501	-0.641551	-0.641401	-0.641451	-0.641351
-58.000000	-0.646199	-0.647299	-0.648499	-0.649500	-0.658550	-0.650600	-0.650950	-0.651050	-0.651300	-0.651400	-0.651350	-0.651450	-0.651350	-0.651450	-0.651050	-0.651000	-0.651100	-0.651000	-0.651050	-0.651050	-0.651000	-0.650950	-0.650850	-0.650900	-0.650900	-0.650750	-0.650750	-0.650750	-0.650700	-0.650651	-0.650551	-0.650651	-0.650551	-0.650501	-0.650551	-0.650451	-0.650451	-0.650351	-0.650351
-57.000000	-0.654499	-0.655649	-0.656999	-0.658000	-0.667150	-0.659100	-0.659300	-0.659550	-0.659650	-0.659750	-0.659700	-0.659800	-0.659850	-0.659800	-0.659500	-0.659500	-0.659450	-0.659350	-0.659350	-0.659350	-0.659350	-0.659250	-0.659350	-0.659200	-0.659250	-0.659250	-0.659100	-0.659050	-0.659001	-0.658951	-0.659051	-0.659001	-0.658901	-0.658951	-0.658851	-0.658751	-0.658801	-0.658801	-0.658701
-56.000000	-0.662199	-0.663299	-0.664649	-0.665650	-0.674900	-0.666750	-0.666950	-0.667200	-0.667300	-0.667400	-0.667500	-0.667450	-0.667500	-0.667400	-0.667100	-0.667100	-0.667050	-0.667100	-0.667000	-0.667000	-0.666950	-0.667000	-0.666950	-0.667000	-0.666850	-0.666850	-0.666851	-0.666801	-0.666751	-0.666701	-0.666651	-0.666601	-0.666651	-0.666551	-0.666451	-0.666501	-0.666401	-0.666451	-0.666451
-55.000000	-0.669199	-0.670299	-0.671649	-0.672650	-0.681950	-0.673700	-0.674050	-0.674150	-0.674400	-0.674350	-0.674450	-0.674550	-0.674400	-0.674500	-0.674050	-0.674000	-0.674100	-0.674000	-0.674050	-0.674050	-0.674000	-0.673950	-0.674000	-0.673900	-0.673900	-0.673901	-0.673751	-0.673701	-0.673651	-0.673601	-0.673701	-0.673651	-0.673551	-0.673601	-0.673501	-0.673401	-0.673451	-0.673451	-0.673351
-54.000000	-0.675549	-0.676649	-0.677949	-0.678950	-0.688300	-0.680000	-0.680350	-0.680550	-0.680650	-0.680750	-0.680850	-0.680800	-0.680800	-0.680750	-0.680400	-0.680400	-0.680300	-0.680350	-0.680250	-0.680250	-0.680200	-0.680250	-0.680200	-0.680200	-0.680101	-0.680101	-0.680051	-0.680051	-0.680001	-0.679951	-0.679901	-0.679801	-0.679901	-0.679801	-0.679851	-0.679751	-0.679751	-0.679651	-0.679651
-53.000000	-0.681299	-0.682349	-0.683599	-0.684550	-0.693950	-0.685750	-0.685950	-0.686150	-0.686200	-0.686300	-0.686400	-0.686350	-0.686350	-0.686450	-0.685900	-0.685900	-0.686000	-0.685900	-0.685900	-0.685900	-0.685850	-0.685750	-0.685850	-0.685701	-0.685751	-0.685701	-0.685701	-0.685551	-0.685651	-0.685601	-0.685501	-0.685451	-0.685351	-0.685401	-0.685301	-0.685351	-0.685251	-0.685251	-0.685301
-52.000000	-0.686199	-0.687199	-0.688450	-0.689550	-0.698950	-0.690550	-0.690850	-0.691050	-0.691100	-0.691200	-0.691250	-0.691200	-0.691200	-0.691300	-0.690900	-0.690850	-0.690800	-0.690700	-0.690700	-0.690700	-0.690650	-0.690700	-0.690601	-0.690651	-0.690501	-0.690501	-0.690501	-0.690451	-0.690401	-0.690351	-0.690301	-0.690351	-0.690301	-0.690201	-0.690251	-0.690101	-0.690151	-0.690201	-0.690051
-51.000000	-0.690299	-0.691449	-0.692800	-0.693700	-0.703250	-0.694800	-0.695050	-0.695250	-0.695300	-0.695350	-0.695450	-0.695400	-0.695550	-0.695450	-0.695000	-0.695000	-0.694900	-0.694950	-0.694800	-0.694800	-0.694900	-0.694801	-0.694701	-0.694751	-0.694751	-0.694751	-0.694751	-0.694551	-0.694651	-0.694601	-0.694501	-0.694451	-0.694501	-0.694401	-0.694301	-0.694351	-0.694351	-0.694251	-0.694251
-50.000000	-0.693949	-0.694999	-0.696300	-0.697150	-0.706750	-0.698200	-0.698500	-0.698650	-0.698850	-0.698900	-0.698950	-0.698900	-0.698900	-0.698950	-0.698450	-0.698450	-0.698350	-0.698400	-0.698250	-0.698350	-0.698301	-0.698201	-0.698251	-0.698151	-0.698151	-0.698151	-0.698101	-0.698101	-0.698051	-0.697951	-0.697901	-0.697801	-0.697901	-0.697801	-0.697801	-0.697701	-0.697751	-0.697751	-0.697651
-49.000000	-0.696649	-0.697749	-0.699000	-0.699950	-0.709550	-0.700950	-0.701200	-0.701400	-0.701550	-0.701550	-0.701650	-0.701700	-0.701700	-0.701600	-0.701050	-0.701000	-0.701100	-0.700950	-0.700950	-0.700951	-0.701001	-0.700951	-0.700851	-0.700851	-0.700851	-0.700851	-0.700801	-0.700751	-0.700701	-0.700651	-0.700601	-0.700651	-0.700551	-0.700451	-0.700501	-0.700401	-0.700401	-0.700451	-0.700301
-48.000000	-0.698699	-0.699849	-0.701050	-0.701950	-0.711501	-0.703050	-0.703250	-0.703400	-0.703550	-0.703600	-0.703600	-0.703700	-0.703650	-0.703550	-0.703000	-0.703100	-0.703000	-0.703000	-0.703001	-0.702951	-0.702901	-0.702801	-0.702851	-0.702851	-0.702701	-0.702701	-0.702651	-0.702601	-0.702551	-0.702651	-0.702551	-0.702501	-0.702551	-0.702451	-0.702501	-0.702351	-0.702401	-0.702401	-0.702251
-47.000000	-0.700099	-0.701199	-0.702300	-0.703300	-0.712801	-0.704300	-0.704500	-0.704650	-0.704750	-0.704750	-0.704950	-0.704850	-0.704950	-0.704850	-0.704200	-0.704150	-0.704200	-0.704200	-0.704201	-0.704151	-0.704101	-0.704151	-0.704001	-0.704051	-0.704051	-0.704001	-0.703951	-0.703901	-0.703851	-0.703801	-0.703701	-0.703801	-0.703701	-0.703701	-0.703601	-0.703651	-0.703501	-0.703551	-0.703551
-46.000000	-0.700699	-0.701699	-0.702850	-0.703800	-0.713251	-0.704750	-0.705050	-0.705150	-0.705250	-0.705400	-0.705400	-0.705450	-0.705400	-0.705450	-0.704750	-0.704700	-0.704750	-0.704601	-0.704551	-0.704651	-0.704601	-0.704451	-0.704501	-0.704501	-0.704501	-0.704501	-0.704451	-0.704401	-0.704351	-0.704251	-0.704151	-0.704201	-0.704101	-0.704151	-0.704051	-0.704101	-0.704101	-0.703951	-0.703951
-45.000000	-0.700499	-0.701499	-0.702800	-0.703650	-0.713051	-0.704650	-0.704800	-0.705050	-0.705100	-0.705100	-0.705250	-0.705100	-0.705200	-0.705200	-0.704450	-0.704400	-0.704401	-0.704401	-0.704401	-0.704351	-0.704251	-0.704251	-0.704151	-0.704151	-0.704151	-0.704101	-0.704051	-0.704001	-0.704101	-0.704001	-0.703951	-0.704001	-0.703901	-0.703901	-0.703801	-0.703801	-0.703851	-0.703701	-0.703701
-44.000000	-0.699649	-0.700700	-0.701750	-0.702700	-0.712151	-0.703600	-0.703850	-0.704050	-0.704150	-0.704050	-0.704200	-0.704200	-0.704150	-0.704150	-0.703350	-0.703400	-0.703251	-0.703251	-0.703251	-0.703301	-0.703201	-0.703251	-0.703101	-0.703101	-0.703101	-0.703051	-0.703001	-0.703101	-0.703001	-0.702951	-0.703001	-0.702901	-0.702801	-0.702801	-0.702851	-0.702701	-0.702751	-0.702751	-0.702751
-43.000000	-0.697999	-0.698950	-0.700150	-0.701050	-0.710451	-0.701850	-0.702100	-0.702300	-0.702300	-0.702400	-0.702500	-0.702500	-0.702400	-0.702401	-0.701650	-0.701551	-0.701601	-0.701551	-0.701551	-0.701451	-0.701501	-0.701351	-0.701351	-0.701351	-0.701351	-0.701301	-0.701251	-0.701201	-0.701251	-0.701151	-0.701051	-0.701101	-0.701001	-0.701051	-0.701051	-0.700951	-0.700951	-0.700951	-0.700951
-42.000000	-0.695549	-0.696650	-0.697800	-0.698600	-0.707901	-0.699450	-0.699700	-0.699800	-0.700000	-0.700050	-0.700000	-0.699950	-0.700001	-0.700001	-0.699000	-0.699051	-0.699051	-0.699051	-0.699001	-0.698901	-0.698901	-0.698951	-0.698801	-0.698751	-0.698751	-0.698701	-0.698651	-0.698701	-0.698651	-0.698701	-0.698601	-0.698651	-0.698551	-0.698551	-0.698451	-0.698451	-0.698451	-0.698451	-0.698451
-41.000000	-0.692399	-0.693550	-0.694600	-0.695500	-0.704651	-0.696250	-0.696550	-0.696700	-0.696650	-0.696700	-0.696750	-0.696750	-0.696751	-0.696751	-0.695801	-0.695701	-0.695701	-0.695651	-0.695751	-0.695651	-0.695651	-0.695501	-0.695501	-0.695501	-0.695451	-0.695401	-0.695501	-0.695401	-0.695351	-0.695401	-0.695301	-0.695351	-0.695201	-0.695251	-0.695251	-0.695251	-0.695101	-0.695101	-0.695101
-40.000000	-0.688649	-0.689650	-0.690750	-0.691550	-0.700751	-0.692350	-0.692650	-0.692700	-0.692850	-0.692850	-0.692900	-0.692851	-0.692851	-0.692801	-0.691801	-0.691651	-0.691651	-0.691751	-0.691651	-0.691551	-0.691551	-0.691551	-0.691551	-0.691501	-0.691501	-0.691401	-0.691351	-0.691401	-0.691351	-0.691401	-0.691301	-0.691301	-0.691201	-0.691201	-0.691201	-0.691201	-0.691051	-0.691051	-0.691051
-39.000000	-0.684049	-0.685050	-0.686050	-0.686950	-0.695951	-0.687750	-0.687850	-0.688050	-0.688150	-0.688150	-0.688151	-0.688251	-0.688251	-0.688151	-0.686901	-0.686901	-0.686901	-0.686951	-0.686901	-0.686801	-0.686751	-0.686751	-0.686751	-0.686701	-0.686651	-0.686601	-0.686651	-0.686601	-0.686651	-0.686551	-0.686551	-0.686451	-0.686451	-0.686501	-0.686501	-0.686351	-0.686351	-0.686351	-0.686301
-38.000000	-0.678649	-0.679800	-0.680800	-0.681650	-0.690501	-0.682350	-0.682550	-0.682750	-0.682800	-0.682750	-0.682751	-0.682801	-0.682801	-0.682701	-0.681451	-0.681451	-0.681401	-0.681351	-0.681401	-0.681301	-0.681251	-0.681251	-0.681201	-0.681151	-0.681101	-0.681051	-0.681101	-0.681201	-0.681101	-0.681101	-0.681001	-0.681001	-0.681051	-0.680901	-0.680901	-0.680901	-0.680901	-0.680901	-0.680851
-37.000000	-0.672700	-0.673700	-0.674750	-0.675500	-0.684401	-0.676250	-0.676450	-0.676550	-0.676600	-0.676651	-0.676651	-0.676701	-0.676651	-0.676701	-0.675151	-0.675151	-0.675101	-0.675201	-0.675101	-0.675101	-0.675051	-0.675051	-0.675001	-0.674951	-0.674851	-0.674951	-0.674851	-0.674901	-0.674951	-0.674851	-0.674851	-0.674751	-0.674751	-0.674751	-0.674751	-0.674751	-0.674751	-0.674601	-0.674551
-36.000000	-0.665900	-0.667100	-0.668000	-0.668700	-0.677551	-0.669500	-0.669600	-0.669850	-0.669850	-0.669901	-0.669851	-0.669901	-0.669851	-0.669851	-0.668301	-0.668301	-0.668251	-0.668151	-0.668201	-0.668201	-0.668151	-0.668101	-0.668051	-0.668001	-0.667901	-0.667851	-0.667901	-0.667951	-0.668001	-0.667851	-0.667901	-0.667901	-0.667901	-0.667751	-0.667751	-0.667751	-0.667751	-0.667701	-0.667701
-35.000000	-0.658450	-0.659600	-0.660600	-0.661300	-0.670001	-0.662000	-0.662200	-0.662300	-0.662401	-0.662451	-0.662401	-0.662401	-0.662301	-0.662351	-0.660601	-0.660551	-0.660501	-0.660551	-0.660551	-0.660451	-0.660351	-0.660301	-0.660401	-0.660301	-0.660251	-0.660301	-0.660201	-0.660401	-0.660301	-0.660301	-0.660301	-0.660201	-0.660201	-0.660201	-0.660201	-0.660151	-0.660151	-0.660101	-0.660101
-34.000000	-0.650250	-0.651600	-0.652450	-0.653250	-0.661751	-0.653950	-0.654000	-0.654201	-0.654251	-0.654301	-0.654201	-0.654201	-0.654251	-0.654251	-0.652301	-0.652251	-0.652151	-0.652201	-0.652201	-0.652201	-0.652151	-0.652101	-0.652001	-0.651901	-0.652001	-0.651901	-0.651951	-0.652001	-0.652001	-0.652001	-0.652051	-0.651901	-0.651901	-0.651901	-0.651851	-0.651851	-0.651851	-0.651801	-0.651751
-33.000000	-0.641500	-0.642850	-0.643750	-0.644450	-0.652751	-0.645200	-0.645200	-0.645351	-0.645451	-0.645401	-0.645451	-0.645401	-0.645451	-0.645451	-0.643251	-0.643201	-0.643251	-0.643151	-0.643151	-0.643151	-0.643051	-0.643001	-0.643001	-0.642951	-0.642851	-0.642901	-0.642801	-0.643101	-0.643151	-0.643001	-0.643001	-0.643001	-0.643001	-0.643001	-0.643001	-0.642951	-0.642951	-0.642901	-0.642851
-32.000000	-0.632050	-0.633550	-0.634500	-0.635100	-0.643351	-0.635750	-0.635901	-0.636001	-0.636001	-0.636101	-0.636151	-0.636101	-0.636101	-0.636101	-0.633601	-0.633551	-0.633601	-0.633601	-0.633451	-0.633451	-0.633501	-0.633401	-0.633251	-0.633201	-0.633251	-0.633301	-0.633201	-0.633501	-0.633501	-0.633551	-0.633401	-0.633401	-0.633351	-0.633351	-0.633351	-0.633301	-0.633251	-0.633251	-0.633201
-31.000000	-0.622000	-0.623650	-0.624500	-0.625200	-0.633251	-0.625900	-0.625951	-0.626151	-0.626201	-0.626101	-0.626101	-0.626201	-0.626201	-0.626151	-0.623351	-0.623301	-0.623351	-0.623351	-0.623351	-0.623301	-0.623151	-0.623101	-0.623051	-0.623001	-0.623051	-0.622901	-0.622951	-0.623401	-0.623301	-0.623301	-0.623301	-0.623301	-0.623251	-0.623251	-0.623201	-0.623201	-0.623151	-0.623101	-0.623101
-30.000000	-0.611500	-0.613350	-0.614200	-0.614850	-0.622651	-0.615401	-0.615601	-0.615651	-0.615801	-0.615701	-0.615651	-0.615701	-0.615701	-0.615651	-0.612501	-0.612551	-0.612551	-0.612601	-0.612551	-0.612551	-0.612401	-0.612301	-0.612251	-0.612151	-0.612201	-0.612201	-0.612101	-0.612701	-0.612701	-0.612701	-0.612551	-0.612551	-0.612551	-0.612501	-0.612501	-0.612601	-0.612551	-0.612501	-0.612451
-29.000000	-0.600350	-0.602550	-0.603300	-0.604000	-0.611601	-0.604651	-0.604851	-0.604801	-0.604901	-0.604801	-0.604901	-0.604801	-0.604751	-0.604851	-0.601251	-0.601301	-0.601301	-0.601301	-0.601301	-0.601251	-0.601101	-0.601151	-0.600901	-0.600951	-0.600851	-0.600851	-0.600851	-0.601651	-0.601501	-0.601501	-0.601451	-0.601451	-0.601451	-0.601401	-0.601401	-0.601351	-0.601451	-0.601401	-0.601351
-28.000000	-0.588700	-0.591400	-0.592250	-0.592850	-0.600401	-0.593451	-0.593601	-0.593651	-0.593601	-0.593601	-0.593701	-0.593751	-0.593701	-0.593601	-0.589601	-0.589501	-0.589551	-0.589501	-0.589651	-0.589601	-0.589401	-0.589501	-0.589151	-0.589201	-0.589101	-0.589101	-0.589101	-0.590051	-0.590051	-0.590001	-0.590001	-0.590001	-0.589951	-0.589951	-0.589901	-0.590001	-0.589951	-0.589901	-0.589851
-27.000000	-0.576850	-0.580050	-0.580800	-0.581401	-0.588851	-0.582051	-0.582301	-0.582301	-0.582251	-0.582251	-0.582351	-0.582351	-0.582301	-0.582201	-0.577601	-0.577601	-0.577601	-0.577601	-0.577551	-0.577501	-0.577501	-0.577401	-0.577151	-0.577151	-0.577051	-0.577051	-0.577101	-0.578301	-0.578301	-0.578251	-0.578251	-0.578251	-0.578201	-0.578301	-0.578301	-0.578251	-0.578201	-0.578151	-0.578251
-26.000000	-0.564550	-0.568600	-0.569450	-0.570001	-0.577251	-0.570751	-0.570851	-0.570751	-0.570851	-0.570851	-0.570901	-0.570901	-0.570851	-0.570901	-0.565351	-0.565401	-0.565401	-0.565551	-0.565501	-0.565451	-0.565401	-0.565301	-0.564951	-0.564951	-0.564851	-0.564851	-0.564851	-0.566551	-0.566501	-0.566501	-0.566501	-0.566451	-0.566451	-0.566551	-0.566501	-0.566451	-0.566401	-0.566351	-0.566451
-25.000000	-0.552200	-0.557250	-0.558101	-0.558751	-0.565801	-0.559501	-0.559751	-0.559551	-0.559701	-0.559651	-0.559701	-0.559701	-0.559651	-0.559651	-0.553351	-0.553401	-0.553401	-0.553401	-0.553351	-0.553451	-0.553251	-0.553301	-0.552651	-0.552651	-0.552701	-0.552701	-0.552701	-0.554951	-0.554951	-0.554951	-0.554951	-0.554901	-0.554851	-0.554851	-0.554951	-0.554901	-0.554851	-0.554801	-0.554901
-24.000000	-0.539850	-0.546500	-0.547301	-0.548151	-0.554851	-0.548901	-0.549001	-0.548851	-0.549001	-0.549001	-0.549001	-0.549001	-0.549051	-0.548951	-0.541501	-0.541551	-0.541551	-0.541551	-0.541651	-0.541601	-0.541551	-0.541601	-0.540751	-0.540751	-0.540801	-0.540801	-0.540851	-0.543851	-0.543851	-0.543801	-0.543801	-0.543751	-0.543901	-0.543851	-0.543801	-0.543751	-0.543851	-0.543801	-0.543751
-23.000000	-0.527850	-0.536601	-0.537601	-0.538351	-0.545001	-0.539151	-0.539451	-0.538951	-0.539151	-0.539301	-0.539351	-0.539351	-0.539401	-0.539251	-0.530401	-0.530451	-0.530451	-0.530601	-0.530601	-0.530651	-0.530451	-0.530551	-0.529551	-0.529451	-0.529501	-0.529501	-0.529551	-0.533751	-0.533751	-0.533751	-0.533851	-0.533851	-0.533801	-0.533751	-0.533751	-0.533851	-0.533801	-0.533751	-0.533701
-22.000000	-0.516500	-0.528301	-0.529301	-0.530151	-0.536701	-0.531251	-0.531451	-0.530851	-0.531151	-0.531201	-0.531251	-0.531401	-0.531301	-0.531301	-0.520651	-0.520751	-0.520801	-0.520801	-0.520901	-0.520851	-0.520801	-0.520901	-0.519401	-0.519451	-0.519501	-0.519551	-0.519551	-0.525401	-0.525401	-0.525401	-0.525551	-0.525551	-0.525501	-0.525501	-0.525451	-0.525551	-0.525501	-0.525451	-0.525551
-21.000000	-0.506250	-0.522551	-0.523601	-0.524751	-0.531052	-0.526001	-0.526301	-0.525301	-0.525751	-0.525851	-0.525952	-0.525952	-0.526002	-0.525902	-0.512951	-0.513051	-0.513151	-0.513301	-0.513301	-0.513451	-0.513251	-0.513351	-0.511501	-0.511551	-0.511451	-0.511501	-0.511551	-0.519951	-0.520001	-0.520001	-0.520151	-0.520151	-0.520101	-0.520101	-0.520051	-0.520201	-0.520151	-0.520101	-0.520051
-20.000000	-0.497700	-0.520551	-0.522001	-0.523351	-0.529602	-0.524852	-0.525352	-0.523752	-0.524252	-0.524652	-0.524752	-0.524802	-0.524752	-0.524802	-0.508901	-0.509101	-0.509201	-0.509251	-0.509301	-0.509451	-0.509301	-0.509401	-0.506751	-0.506851	-0.506951	-0.506901	-0.506951	-0.519151	-0.519151	-0.519201	-0.519351	-0.519351	-0.519351	-0.519351	-0.519351	-0.519301	-0.519451	-0.519401	-0.519351
-19.000000	-0.491900	-0.524851	-0.526602	-0.528152	-0.534552	-0.530352	-0.531002	-0.528302	-0.529302	-0.529752	-0.530002	-0.529952	-0.530102	-0.530052	-0.510301	-0.510551	-0.510751	-0.510851	-0.510951	-0.511151	-0.511051	-0.511201	-0.507251	-0.507401	-0.507551	-0.507651	-0.507751	-0.525801	-0.525701	-0.525751	-0.525801	-0.525851	-0.525851	-0.526001	-0.526001	-0.526001	-0.526001	-0.526001	-0.526101
-18.000000	-0.490100	-0.538452	-0.540802	-0.543052	-0.549503	-0.545953	-0.547003	-0.542503	-0.544003	-0.544803	-0.545053	-0.545253	-0.545403	-0.545403	-0.520451	-0.520851	-0.521151	-0.521351	-0.521501	-0.521601	-0.521701	-0.521751	-0.516301	-0.516351	-0.516551	-0.516701	-0.516851	-0.544002	-0.544102	-0.544152	-0.544252	-0.544302	-0.544352	-0.544402	-0.544452	-0.544452	-0.544502	-0.544502	-0.544502
-17.000000	-0.494500	-0.566652	-0.569953	-0.573103	-0.579954	-0.577254	-0.578954	-0.571453	-0.573853	-0.575104	-0.575604	-0.575904	-0.576154	-0.576204	-0.544602	-0.545202	-0.545502	-0.545852	-0.546102	-0.546352	-0.546352	-0.546502	-0.538401	-0.538601	-0.538851	-0.539101	-0.539202	-0.580952	-0.581102	-0.581102	-0.581252	-0.581352	-0.581502	-0.581552	-0.581503	-0.581553	-0.581653	-0.581703	-0.581703
-16.000000	-0.508350	-0.617003	-0.621604	-0.626254	-0.633855	-0.632655	-0.635205	-0.622454	-0.626555	-0.628705	-0.629555	-0.630055	-0.630455	-0.630755	-0.590502	-0.591202	-0.591753	-0.592303	-0.592603	-0.592953	-0.593153	-0.593253	-0.581102	-0.581452	-0.581752	-0.581952	-0.582302	-0.646803	-0.646903	-0.647153	-0.647253	-0.647304	-0.647504	-0.647654	-0.647654	-0.647804	-0.647904	-0.648004	-0.647954
-15.000000	-0.538150	-0.699404	-0.705705	-0.712506	-0.721556	-0.722707	-0.726757	-0.704205	-0.711306	-0.715106	-0.716656	-0.717707	-0.718357	-0.718907	-0.668353	-0.669304	-0.670204	-0.670904	-0.671404	-0.671804	-0.672054	-0.672504	-0.654103	-0.654503	-0.654953	-0.655503	-0.655853	-0.753555	-0.753805	-0.754055	-0.754255	-0.754405	-0.754705	-0.754855	-0.754955	-0.755155	-0.755205	-0.755405	-0.755555
-14.000000	-0.595550	-0.821706	-0.829157	-0.838708	-0.849508	-0.854459	-0.861359	-0.821257	-0.833408	-0.840158	-0.843158	-0.845159	-0.846809	-0.848009	-0.786855	-0.788255	-0.789405	-0.790305	-0.791105	-0.791805	-0.792306	-0.792856	-0.765504	-0.766304	-0.767004	-0.767604	-0.768054	-0.905657	-0.906057	-0.906307	-0.906707	-0.907007	-0.907307	-0.907557	-0.907957	-0.908157	-0.908457	-0.908607	-0.908857
-13.000000	-0.696352	-0.977008	-0.982109	-0.992510	-1.004710	-1.014961	-1.025862	-0.958358	-0.977009	-0.988310	-0.993710	-0.997510	-1.000661	-1.003311	-0.937107	-0.938907	-0.940457	-0.941757	-0.942907	-0.943807	-0.944607	-0.945557	-0.907405	-0.908405	-0.909305	-0.910105	-0.910855	-1.073359	-1.074109	-1.074609	-1.075109	-1.075709	-1.076159	-1.076659	-1.077009	-1.077459	-1.077909	-1.078259	-1.078659
-12.000000	-0.841005	-1.121111	-1.119211	-1.124611	-1.133762	-1.147112	-1.161663	-1.066807	-1.086359	-1.100460	-1.107960	-1.113761	-1.118811	-1.123211	-1.068808	-1.070858	-1.072808	-1.074258	-1.075708	-1.076808	-1.077958	-1.078908	-1.032706	-1.033756	-1.034656	-1.035506	-1.036306	-1.176859	-1.177709	-1.178309	-1.179109	-1.179809	-1.180309	-1.180959	-1.181609	-1.182209	-1.182609	-1.183109	-1.183609
-11.000000	-0.982959	-1.183512	-1.175111	-1.170561	-1.170111	-1.177712	-1.188562	-1.097706	-1.103057	-1.110257	-1.115357	-1.120058	-1.124508	-1.128458	-1.107307	-1.108757	-1.110257	-1.111307	-1.112407	-1.113407	-1.114457	-1.115407	-1.071205	-1.071855	-1.072455	-1.072905	-1.073455	-1.150806	-1.151356	-1.151856	-1.152406	-1.152906	-1.153407	-1.153857	-1.154357	-1.154657	-1.155107	-1.155507	-1.155907
-10.000000	-0.984861	-1.006010	-1.004760	-1.010809	-1.018309	-0.991958	-1.009058	-1.022308	-1.032408	-1.040058	-1.045108	-1.048107	-1.049007	-1.049757	-1.050357	-1.050257	-1.049907	-1.049107	-1.047506	-1.045306	-1.043106	-1.040706	-1.038456	-1.036256	-1.034155	-1.031855	-1.029355	-1.026655	-1.023855	-1.069256	-1.019205	-1.066606	-1.065255	-1.064055	-1.062755	-1.061455	-1.014854	-1.058855	-1.057355
-9.500000	-0.962086	-0.972310	-0.963359	-0.967759	-0.975309	-0.982558	-0.958707	-0.969207	-0.976507	-0.980907	-0.983707	-0.986007	-0.987257	-0.987856	-0.987556	-0.986756	-0.986506	-0.986006	-0.985356	-0.984656	-0.983655	-0.982305	-0.980955	-0.980055	-0.979305	-0.978305	-0.977405	-0.976355	-0.975305	-0.969404	-0.966954	-0.964554	-0.970604	-0.969704	-0.960004	-0.967854	-0.959629	-0.981379	-0.959804
-9.000000	-0.939961	-0.926210	-0.912859	-0.918358	-0.923008	-0.928158	-0.932357	-0.933657	-0.925582	-0.916606	-0.919206	-0.920506	-0.921256	-0.922156	-0.922506	-0.922555	-0.922105	-0.921305	-0.920805	-0.920155	-0.919605	-0.918855	-0.917955	-0.916854	-0.915604	-0.914704	-0.913954	-0.913054	-0.912204	-0.911404	-0.910504	-0.909504	-0.908504	-0.907353	-0.906603	-0.905853	-0.905153	-0.904303	-0.903653
-8.500000	-0.889660	-0.875209	-0.874659	-0.862258	-0.869107	-0.872507	-0.874807	-0.876157	-0.876006	-0.874156	-0.871856	-0.868456	-0.863655	-0.856855	-0.861580	-0.857455	-0.857505	-0.857104	-0.856554	-0.855604	-0.855004	-0.854454	-0.853804	-0.853054	-0.852204	-0.851104	-0.850103	-0.849253	-0.848553	-0.847853	-0.847053	-0.846153	-0.845353	-0.844403	-0.843503	-0.842703	-0.842053	-0.841253	-0.840703
-8.000000	-0.834860	-0.820859	-0.823208	-0.819207	-0.812157	-0.816557	-0.817606	-0.817156	-0.816456	-0.815005	-0.812605	-0.810305	-0.807855	-0.805155	-0.801854	-0.798704	-0.795304	-0.793254	-0.792804	-0.792154	-0.791304	-0.790503	-0.789853	-0.789303	-0.788453	-0.787653	-0.786653	-0.785803	-0.785103	-0.784353	-0.783503	-0.782853	-0.782002	-0.781152	-0.780202	-0.779502	-0.778752	-0.778052	-0.777502
-7.500000	-0.777909	-0.765508	-0.770208	-0.770307	-0.757056	-0.758206	-0.759206	-0.758105	-0.756005	-0.754005	-0.751705	-0.749204	-0.746854	-0.744554	-0.742154	-0.739654	-0.737354	-0.735153	-0.733103	-0.730803	-0.728353	-0.727453	-0.726753	-0.725953	-0.725203	-0.724403	-0.723402	-0.722652	-0.721702	-0.721052	-0.720252	-0.719402	-0.718452	-0.717702	-0.716852	-0.716052	-0.715302	-0.714552	-0.713652
-7.000000	-0.726459	-0.721858	-0.716257	-0.714356	-0.709556	-0.698805	-0.698505	-0.697105	-0.694605	-0.692054	-0.689654	-0.687104	-0.684654	-0.682403	-0.680203	-0.677953	-0.675853	-0.673853	-0.672103	-0.670203	-0.668503	-0.666602	-0.665052	-0.663402	-0.661952	-0.660952	-0.660052	-0.659102	-0.658202	-0.657252	-0.656152	-0.655102	-0.654051	-0.652901	-0.651701	-0.650351	-0.648851	-0.647251	-0.645151
-6.500000	-0.674258	-0.667007	-0.661006	-0.655606	-0.650605	-0.645655	-0.639905	-0.634254	-0.631704	-0.629004	-0.626353	-0.623903	-0.621553	-0.619303	-0.617253	-0.615153	-0.613202	-0.611352	-0.609602	-0.607852	-0.606202	-0.604502	-0.602802	-0.601102	-0.599002	-0.597001	-0.595001	-0.592701	-0.590051	-0.587001	-0.584651	-0.583601	-0.582700	-0.582100	-0.581400	-0.580800	-0.580250	-0.579750	-0.579250
-6.000000	-0.624358	-0.612857	-0.602906	-0.596355	-0.588555	-0.582754	-0.578104	-0.574154	-0.570453	-0.566753	-0.563503	-0.560453	-0.557503	-0.555052	-0.552552	-0.550252	-0.548102	-0.545852	-0.543452	-0.541001	-0.538151	-0.534601	-0.531501	-0.529851	-0.528651	-0.527651	-0.526750	-0.526000	-0.525150	-0.524500	-0.523900	-0.523200	-0.522750	-0.522300	-0.521700	-0.521300	-0.520800	-0.520350	-0.520050
-5.500000	-0.568207	-0.555956	-0.544905	-0.533455	-0.527054	-0.520379	-0.515103	-0.510353	-0.506253	-0.502253	-0.498902	-0.495602	-0.492452	-0.489002	-0.485301	-0.480951	-0.476751	-0.474801	-0.473151	-0.471701	-0.470500	-0.469550	-0.468550	-0.467600	-0.466950	-0.466150	-0.465450	-0.464800	-0.464500	-0.463750	-0.463400	-0.462975	-0.462550	-0.462175	-0.461700	-0.461450	-0.461100	-0.460700	-0.460550
-5.000000	-0.501756	-0.489205	-0.479605	-0.470854	-0.463904	-0.458053	-0.452703	-0.447803	-0.442302	-0.437152	-0.431252	-0.425201	-0.421501	-0.419151	-0.417201	-0.415651	-0.414200	-0.413000	-0.411800	-0.410850	-0.409850	-0.409050	-0.408350	-0.407700	-0.407100	-0.406550	-0.406050	-0.405550	-0.405100	-0.404700	-0.404150	-0.403800	-0.403450	-0.403100	-0.402800	-0.402500	-0.402050	-0.401800	-0.401550
-4.500000	-0.434755	-0.421905	-0.412154	-0.403353	-0.396053	-0.389452	-0.382702	-0.375351	-0.369501	-0.366151	-0.363751	-0.361751	-0.360051	-0.358550	-0.357350	-0.356000	-0.354750	-0.353650	-0.352750	-0.351950	-0.351200	-0.350350	-0.349500	-0.349050	-0.348450	-0.347900	-0.347400	-0.346900	-0.346400	-0.345950	-0.345650	-0.345250	-0.345000	-0.344600	-0.344350	-0.344000	-0.343800	-0.343450	-0.343250
-4.000000	-0.366705	-0.353904	-0.343653	-0.333902	-0.324402	-0.314951	-0.310051	-0.306751	-0.304251	-0.302250	-0.300500	-0.299050	-0.297750	-0.296650	-0.295850	-0.294950	-0.294150	-0.293450	-0.292750	-0.292300	-0.291700	-0.291200	-0.290850	-0.290350	-0.290050	-0.289650	-0.289350	-0.289000	-0.288600	-0.288250	-0.287850	-0.287400	-0.287050	-0.286750	-0.286550	-0.286250	-0.286000	-0.285850	-0.285550
-3.500000	-0.297054	-0.283503	-0.271002	-0.258751	-0.252701	-0.248601	-0.245550	-0.243250	-0.241450	-0.239950	-0.238650	-0.237600	-0.236550	-0.235750	-0.234900	-0.234300	-0.233700	-0.233200	-0.232700	-0.232100	-0.231650	-0.231400	-0.231050	-0.230700	-0.230350	-0.230000	-0.229700	-0.229400	-0.229250	-0.228950	-0.228650	-0.228550	-0.228300	-0.228050	-0.227950	-0.227700	-0.227600	-0.227350	-0.227300
-3.000000	-0.223752	-0.207201	-0.197601	-0.191751	-0.187850	-0.184900	-0.182800	-0.181100	-0.179700	-0.178550	-0.177500	-0.176650	-0.175950	-0.175250	-0.174600	-0.174200	-0.173650	-0.173150	-0.172800	-0.172450	-0.172050	-0.171750	-0.171450	-0.171200	-0.170950	-0.170750	-0.170500	-0.170250	-0.170050	-0.169800	-0.169599	-0.169399	-0.169199	-0.168999	-0.168949	-0.168749	-0.168549	-0.168499	-0.168349
-2.500000	-0.147251	-0.137401	-0.131350	-0.127250	-0.124500	-0.122500	-0.121000	-0.119650	-0.118600	-0.117650	-0.116900	-0.116250	-0.115800	-0.115150	-0.114700	-0.114300	-0.113950	-0.113550	-0.113199	-0.112849	-0.112699	-0.112349	-0.112199	-0.111849	-0.111699	-0.111549	-0.111199	-0.111049	-0.110899	-0.110749	-0.110599	-0.110449	-0.110299	-0.110149	-0.109999	-0.109849	-0.109699	-0.109699	-0.109549
-2.000000	-0.077600	-0.070950	-0.066800	-0.064050	-0.062200	-0.060700	-0.059550	-0.058699	-0.057899	-0.057149	-0.056749	-0.056199	-0.055799	-0.055399	-0.054949	-0.054549	-0.054299	-0.054099	-0.053849	-0.053599	-0.053399	-0.053149	-0.052949	-0.052699	-0.052599	-0.052349	-0.052249	-0.052149	-0.051949	-0.051849	-0.051749	-0.051649	-0.051549	-0.051299	-0.051199	-0.051099	-0.050999	-0.050899	-0.050749
-1.500000	-0.009949	-0.005649	-0.003149	-0.001349	-0.000249	0.000651	0.001401	0.002051	0.002651	0.003101	0.003351	0.003651	0.004001	0.004401	0.004651	0.004901	0.005151	0.005251	0.005501	0.005651	0.005801	0.005901	0.006051	0.006201	0.006401	0.006551	0.006601	0.006751	0.006951	0.007001	0.007051	0.007251	0.007301	0.007351	0.007401	0.007601	0.007651	0.007751	0.007801
-1.000000	0.056851	0.059201	0.060351	0.061001	0.061451	0.061951	0.062401	0.062551	0.062901	0.063251	0.063401	0.063601	0.063751	0.063951	0.064201	0.064301	0.064401	0.064551	0.064701	0.064851	0.064901	0.065101	0.065151	0.065251	0.065351	0.065451	0.065551	0.065651	0.065651	0.065801	0.065901	0.065901	0.066051	0.066101	0.066101	0.066251	0.066301	0.066301	0.066351
-0.500000	0.123602	0.123802	0.123652	0.123401	0.123251	0.123151	0.123201	0.123251	0.123251	0.123351	0.123401	0.123401	0.123501	0.123701	0.123751	0.123851	0.123801	0.123851	0.124001	0.124101	0.124001	0.124151	0.124151	0.124301	0.124301	0.124351	0.124401	0.124451	0.124501	0.124601	0.124651	0.124601	0.124751	0.124851	0.124801	0.124951	0.124901	0.124901	0.125051
0.000000	0.191003	0.189202	0.187452	0.186102	0.185202	0.184652	0.184201	0.183951	0.183751	0.183651	0.183451	0.183351	0.183401	0.183351	0.183251	0.183201	0.183201	0.183201	0.183301	0.183251	0.183251	0.183251	0.183301	0.183251	0.183351	0.183301	0.183301	0.183401	0.183451	0.183451	0.183351	0.183401	0.183451	0.183501	0.183451	0.183501	0.183601	0.183551	0.183651
0.500000	0.262304	0.256853	0.252203	0.249602	0.247802	0.246502	0.245702	0.244952	0.244552	0.244101	0.243751	0.243551	0.243351	0.243101	0.242951	0.242901	0.242751	0.242651	0.242551	0.242601	0.242451	0.242401	0.242351	0.242351	0.242351	0.242401	0.242301	0.242251	0.242351	0.242301	0.242251	0.242251	0.242251	0.242301	0.242301	0.242201	0.242251	0.242301	0.242201
1.000000	0.331855	0.327454	0.321753	0.315203	0.311303	0.309102	0.307602	0.306552	0.305652	0.304902	0.304352	0.304002	0.303552	0.303251	0.303001	0.302751	0.302601	0.302301	0.302151	0.302001	0.301951	0.301751	0.301751	0.301651	0.301601	0.301401	0.301401	0.301401	0.301251	0.301301	0.301201	0.301151	0.301101	0.301051	0.301051	0.301051	0.301051	0.301051	0.300901
1.500000	0.398405	0.394355	0.390104	0.384754	0.379403	0.374353	0.370753	0.369052	0.367602	0.366452	0.365652	0.364952	0.364352	0.363702	0.363252	0.362902	0.362551	0.362251	0.361901	0.361801	0.361601	0.361301	0.361201	0.361001	0.360951	0.360851	0.360751	0.360501	0.360451	0.360451	0.360301	0.360151	0.360201	0.360101	0.360001	0.359951	0.359901	0.359851	0.359801
2.000000	0.463356	0.459355	0.455255	0.450954	0.447054	0.443204	0.439253	0.435403	0.431703	0.429202	0.427752	0.426702	0.425802	0.425002	0.424202	0.423602	0.423102	0.422652	0.422252	0.421852	0.421601	0.421301	0.421101	0.420751	0.420601	0.420351	0.420151	0.420001	0.419851	0.419751	0.419651	0.419451	0.419401	0.419251	0.419101	0.419001	0.419001	0.418951	0.418851
2.500000	0.527757	0.523606	0.519555	0.515455	0.511855	0.508804	0.505954	0.503204	0.500303	0.497303	0.494303	0.491503	0.489002	0.487252	0.486102	0.485102	0.484302	0.483702	0.483102	0.482602	0.482152	0.481702	0.481302	0.480952	0.480651	0.480301	0.480101	0.479851	0.479601	0.479401	0.479201	0.479051	0.478801	0.478701	0.478451	0.478451	0.478251	0.478101	0.477951
3.000000	0.591757	0.587557	0.583606	0.579555	0.575855	0.572855	0.570354	0.567854	0.565554	0.563604	0.561604	0.559553	0.557303	0.555103	0.552653	0.550253	0.548202	0.546452	0.545052	0.544302	0.543602	0.542852	0.542402	0.541852	0.541402	0.541002	0.540502	0.540202	0.539851	0.539501	0.539351	0.538951	0.538751	0.538551	0.538401	0.538101	0.538001	0.537751	0.537551
3.500000	0.655658	0.651457	0.647507	0.643606	0.639856	0.636655	0.634105	0.631655	0.629604	0.627604	0.625854	0.624254	0.622654	0.621104	0.619503	0.618053	0.616403	0.614653	0.612903	0.611153	0.609252	0.607502	0.605902	0.604402	0.603402	0.602552	0.601952	0.601502	0.600902	0.600402	0.600102	0.599702	0.599352	0.599051	0.598751	0.598351	0.598151	0.597951	0.597651
4.000000	0.719109	0.715508	0.711557	0.707457	0.703706	0.700556	0.697905	0.695405	0.693255	0.691305	0.689704	0.687954	0.686454	0.684854	0.683504	0.682204	0.681054	0.679853	0.678603	0.677453	0.676353	0.675153	0.674053	0.672603	0.671353	0.669903	0.668652	0.667202	0.665652	0.664352	0.663202	0.662102	0.661152	0.660452	0.659902	0.659502	0.659152	0.658852	0.658402
4.500000	0.782209	0.779058	0.775458	0.771357	0.767757	0.764456	0.761806	0.759306	0.757055	0.755255	0.753405	0.751605	0.750005	0.748604	0.747104	0.745904	0.744704	0.743454	0.742404	0.741404	0.740354	0.739403	0.738553	0.737603	0.736703	0.735703	0.734903	0.734003	0.733103	0.732253	0.731353	0.730403	0.729303	0.728202	0.727252	0.726102	0.725002	0.723902	0.722702
5.000000	0.845060	0.842259	0.839458	0.835208	0.831807	0.828457	0.825856	0.823056	0.820956	0.819056	0.817155	0.815405	0.813855	0.812255	0.810805	0.809605	0.808354	0.807154	0.806104	0.805054	0.804004	0.803104	0.802204	0.801204	0.800354	0.799504	0.798703	0.797803	0.796853	0.795953	0.795053	0.793903	0.792803	0.791753	0.790853	0.790003	0.789303	0.788453	0.787803
5.500000	0.907211	0.905560	0.902909	0.899308	0.895658	0.892707	0.889857	0.887157	0.885106	0.883206	0.881106	0.879406	0.877806	0.876205	0.874705	0.873255	0.871605	0.870005	0.867905	0.866105	0.864804	0.863654	0.862304	0.860904	0.859304	0.858154	0.857204	0.856304	0.855254	0.854254	0.853203	0.852103	0.851153	0.850353	0.849603	0.848903	0.848253	0.847453	0.846703
6.000000	0.968661	0.968110	0.966310	0.963059	0.959658	0.957008	0.953858	0.951557	0.948757	0.945007	0.941556	0.939156	0.936256	0.933806	0.931756	0.929805	0.927805	0.926155	0.924655	0.923205	0.922005	0.920755	0.919355	0.918154	0.917004	0.916204	0.915354	0.914604	0.913804	0.912904	0.912204	0.911404	0.910754	0.910004	0.909404	0.908653	0.907903	0.907203	0.906553
6.500000	1.029312	1.030011	1.029360	1.026510	1.020209	1.014409	1.009608	1.005758	1.002107	0.999657	0.997107	0.994507	0.992306	0.990706	0.989306	0.988056	0.986806	0.985006	0.983505	0.982405	0.981255	0.980155	0.979055	0.977855	0.976755	0.976055	0.975155	0.974454	0.973654	0.973004	0.972354	0.971604	0.971004	0.970504	0.970004	0.969404	0.968954	0.968304	0.967754
7.000000	1.087062	1.083861	1.078461	1.073110	1.070259	1.066509	1.063009	1.061108	1.059608	1.057708	1.055507	1.052857	1.050857	1.049207	1.047657	1.046656	1.045356	1.044406	1.043606	1.042856	1.041956	1.040906	1.039905	1.038855	1.038205	1.037455	1.036755	1.035955	1.035155	1.034205	1.033405	1.032605	1.031855	1.031304	1.030604	1.029954	1.029304	1.028654	1.027854
7.500000	1.117663	1.121662	1.125011	1.118760	1.122110	1.121859	1.119259	1.116009	1.112908	1.112608	1.112008	1.111458	1.110757	1.109907	1.108557	1.107157	1.106207	1.105157	1.104056	1.102806	1.101356	1.099856	1.098806	1.097756	1.096856	1.096006	1.095005	1.094005	1.092805	1.093205	1.092705	1.090755	1.090555	1.091030	1.089755	1.089305	1.089330	1.088305	1.087705
8.000000	1.142312	1.157762	1.157511	1.170261	1.173160	1.170310	1.166109	1.169709	1.170709	1.171459	1.171308	1.170858	1.169508	1.168008	1.167058	1.166007	1.164907	1.163457	1.161907	1.160307	1.159257	1.158106	1.157006	1.155856	1.156256	1.155506	1.154556	1.153681	1.153131	1.153306	1.153006	1.152106	1.151755	1.151455	1.150955	1.150455	1.149755	1.149305	1.148955
8.500000	1.165412	1.187962	1.199311	1.213711	1.213711	1.211910	1.219760	1.224460	1.227109	1.228259	1.227609	1.226959	1.226359	1.225558	1.224358	1.222658	1.220308	1.218408	1.216507	1.216457	1.218407	1.217882	1.216507	1.216007	1.215457	1.215307	1.215156	1.214956	1.214756	1.214506	1.214256	1.213856	1.213256	1.212506	1.211906	1.211406	1.211106	1.210856	1.210456
9.000000	1.190562	1.191761	1.227261	1.245511	1.242911	1.260811	1.270810	1.276860	1.279410	1.280760	1.281209	1.280309	1.277409	1.272309	1.273709	1.275308	1.276558	1.277408	1.278058	1.278208	1.277758	1.277258	1.277307	1.277257	1.277257	1.277207	1.276907	1.276657	1.276207	1.275607	1.274757	1.274157	1.273857	1.273506	1.273206	1.272956	1.272606	1.272256	1.271756
9.500000	1.229263	1.226111	1.251761	1.244911	1.278611	1.303261	1.315611	1.322861	1.321110	1.311210	1.319460	1.324510	1.328959	1.332409	1.334759	1.336459	1.337409	1.337459	1.337509	1.338009	1.338358	1.338408	1.338558	1.338358	1.338108	1.337358	1.336158	1.335308	1.335007	1.334457	1.333857	1.333157	1.328107	1.326907	1.325507	1.324307	1.324919	1.325107	1.324006
10.000000	1.267963	1.255762	1.255061	1.278661	1.304611	1.328661	1.335811	1.307260	1.334710	1.357110	1.369360	1.377660	1.383260	1.386760	1.388360	1.390310	1.391859	1.392759	1.393409	1.393559	1.393359	1.392209	1.390309	1.389108	1.388108	1.387058	1.385958	1.384958	1.383808	1.382708	1.381308	1.379858	1.378007	1.375557	1.373457	1.372157	1.377282	1.379007	1.378457
10.500000	1.337964	1.284562	1.280661	1.299661	1.325311	1.340611	1.306009	1.341010	1.368360	1.390360	1.407760	1.420060	1.427760	1.433360	1.437310	1.440110	1.441560	1.441710	1.440510	1.440359	1.439859	1.439409	1.438609	1.437809	1.436759	1.435559	1.433959	1.431758	1.428658	1.426258	1.423758	1.420858	1.426833	1.427758	1.428958	1.431358	1.432195	1.434908	1.434208
11.000000	1.359864	1.314262	1.310661	1.319761	1.342210	1.329710	1.338960	1.369960	1.394060	1.414360	1.430860	1.444760	1.456610	1.466260	1.473460	1.479010	1.481710	1.483010	1.483710	1.483810	1.483360	1.482360	1.480059	1.477259	1.475209	1.472709	1.469759	1.465958	1.461358	1.465358	1.468133	1.473608	1.477558	1.480608	1.478558	1.483558	1.484908	1.486658	1.488158
11.500000	1.364213	1.346212	1.334611	1.341710	1.353060	1.329759	1.358759	1.387610	1.412010	1.431910	1.447510	1.463110	1.476910	1.488160	1.496860	1.502760	1.506260	1.507260	1.507060	1.507360	1.506710	1.505059	1.502409	1.498559	1.493559	1.487359	1.479958	1.487433	1.493058	1.502108	1.510109	1.506933	1.512883	1.524559	1.528109	1.531409	1.534259	1.536859	1.539059
12.000000	1.341462	1.346961	1.352511	1.357910	1.357160	1.351059	1.376609	1.401009	1.424010	1.445010	1.464210	1.481510	1.496410	1.506610	1.515360	1.521110	1.524410	1.525760	1.525410	1.523660	1.520259	1.515009	1.507059	1.499108	1.490858	1.485458	1.496858	1.507458	1.517558	1.526908	1.535759	1.544159	1.551959	1.559409	1.566809	1.572809	1.576409	1.580059	1.583259
12.500000	1.305061	1.336911	1.363761	1.371710	1.357709	1.365459	1.390909	1.415009	1.436359	1.454960	1.475110	1.494710	1.512010	1.526060	1.534960	1.539310	1.538910	1.536210	1.532859	1.528009	1.521559	1.513959	1.505158	1.495258	1.498758	1.511108	1.522558	1.532858	1.540808	1.550458	1.559908	1.568759	1.577209	1.585009	1.592459	1.599359	1.605809	1.611909	1.617709
13.000000	1.256309	1.312460	1.361010	1.378460	1.350209	1.375959	1.400359	1.422909	1.444959	1.467009	1.488560	1.507660	1.525910	1.539160	1.546510	1.548960	1.547810	1.543809	1.537309	1.528709	1.517808	1.503758	1.511083	1.507958	1.521458	1.534308	1.546708	1.558108	1.569508	1.579909	1.590009	1.599259	1.607859	1.615709	1.622659	1.627009	1.633459	1.639509	1.645209
13.500000	1.189408	1.274908	1.347259	1.374909	1.340208	1.382208	1.408759	1.428759	1.450409	1.473559	1.496809	1.522160	1.542060	1.553010	1.555160	1.550359	1.544859	1.536909	1.526708	1.514658	1.499607	1.506707	1.522158	1.536258	1.550408	1.562908	1.572608	1.584358	1.595508	1.606709	1.616609	1.626359	1.635559	1.643759	1.651909	1.659359	1.665909	1.672209	1.675734
14.000000	1.103055	1.221907	1.322958	1.357158	1.331257	1.379558	1.409408	1.433608	1.457209	1.480859	1.505859	1.532459	1.548609	1.553959	1.552309	1.545909	1.536058	1.523258	1.505807	1.495507	1.511857	1.528457	1.545008	1.559958	1.575458	1.589608	1.602808	1.616059	1.627859	1.639109	1.649959	1.659259	1.667359	1.672309	1.679759	1.686709	1.693609	1.699959	1.705509
14.500000	0.987702	1.151705	1.286857	1.315007	1.318557	1.369907	1.404158	1.431008	1.457408	1.487558	1.519259	1.542359	1.548359	1.546109	1.537858	1.525408	1.507907	1.483607	1.501707	1.521457	1.538857	1.556758	1.573708	1.587808	1.600508	1.615158	1.628858	1.642709	1.654859	1.665959	1.677159	1.687259	1.696059	1.704759	1.713209	1.720360	1.726910	1.733260	1.739010
15.000000	0.905700	1.061602	1.239905	1.247105	1.296806	1.356707	1.395457	1.424707	1.456608	1.491308	1.523058	1.537709	1.538008	1.528908	1.512707	1.486657	1.477456	1.498206	1.519957	1.540107	1.559307	1.579408	1.597308	1.613958	1.631408	1.646409	1.660559	1.674909	1.686959	1.696659	1.704309	1.714159	1.722559	1.730609	1.738609	1.746110	1.752360	1.758210	1.764010
15.500000	0.822848	0.738145	1.181604	1.169203	1.266505	1.334906	1.379906	1.420407	1.459557	1.494158	1.517458	1.520208	1.509657	1.487707	1.447956	1.474706	1.498006	1.520607	1.544457	1.564057	1.579757	1.601158	1.619208	1.637558	1.655608	1.670409	1.685209	1.700059	1.712059	1.723359	1.734909	1.745260	1.753710	1.761810	1.769760	1.777110	1.782410	1.782860	1.787860
16.000000	0.740196	0.756345	1.095502	1.096501	1.226803	1.304254	1.360705	1.411006	1.457957	1.491957	1.501657	1.488807	1.452606	1.428805	1.457255	1.486706	1.511656	1.537156	1.561857	1.583457	1.606808	1.627808	1.646908	1.667258	1.683809	1.693509	1.709159	1.722659	1.734109	1.745409	1.756959	1.766509	1.774810	1.782560	1.790410	1.798310	1.804910	1.810510	1.815860
16.500000	0.767096	0.739244	1.047925	1.026399	1.177902	1.272903	1.340654	1.401255	1.450556	1.470106	1.458456	1.410555	1.411554	1.443305	1.474655	1.501906	1.524406	1.553506	1.577307	1.600957	1.625757	1.645858	1.667008	1.687058	1.703559	1.720259	1.737059	1.749659	1.761709	1.773460	1.784460	1.786059	1.793509	1.800910	1.808460	1.816160	1.822460	1.827810	1.833260
17.000000	0.767996	0.737444	1.000399	0.957947	1.102200	1.226702	1.320854	1.393905	1.430555	1.422205	1.354553	1.370903	1.414804	1.448905	1.485455	1.514706	1.544956	1.574007	1.599107	1.626707	1.642457	1.663358	1.685808	1.702708	1.719358	1.737559	1.751209	1.763659	1.775859	1.788959	1.799410	1.808260	1.816460	1.825110	1.834110	1.842460	1.848810	1.854360	1.859610
17.500000	0.752445	0.735893	0.959122	0.913821	1.061748	1.164350	1.294853	1.372404	1.386004	1.318452	1.321302	1.367553	1.415054	1.452304	1.490705	1.521905	1.556856	1.584106	1.613357	1.640207	1.663458	1.689308	1.708408	1.725359	1.743359	1.751259	1.763259	1.775309	1.789059	1.801759	1.810759	1.819360	1.827660	1.836210	1.845260	1.853960	1.861010	1.867510	1.873860
18.000000	0.763245	0.746443	0.918246	0.873445	1.023897	1.010047	1.263402	1.328853	1.285851	1.233400	1.308952	1.367253	1.418703	1.460354	1.494504	1.528555	1.563005	1.591906	1.623956	1.647957	1.673757	1.697108	1.715908	1.735858	1.756109	1.770159	1.783109	1.796509	1.811160	1.821410	1.830860	1.840010	1.848910	1.858360	1.861860	1.869310	1.882711	1.888311	1.893411
18.500000	0.781745	0.760593	0.880670	0.831593	0.989946	0.969595	1.222550	1.254401	1.161198	1.206799	1.290401	1.354702	1.409953	1.456404	1.498554	1.541805	1.574256	1.608756	1.629356	1.654507	1.683707	1.703207	1.722708	1.744958	1.760408	1.774909	1.789459	1.805559	1.818609	1.828710	1.837960	1.846560	1.854510	1.862360	1.870360	1.876711	1.880861	1.884761	1.888211
19.000000	0.809795	0.779193	0.843394	0.789192	0.952745	0.924194	1.150049	1.162699	1.069896	1.158548	1.266800	1.336901	1.395952	1.445353	1.488954	1.534805	1.570105	1.610556	1.638306	1.669707	1.694157	1.715208	1.738908	1.758859	1.774609	1.789109	1.803810	1.819110	1.828560	1.836610	1.834360	1.839610	1.844160	1.847260	1.829159	1.837059	1.835809	1.842459	1.847660
19.500000	0.813695	0.784493	0.812843	0.755341	0.919844	0.884593	1.117672	1.066046	0.978744	1.113172	1.230699	1.319251	1.376901	1.427752	1.477253	1.524654	1.560355	1.601055	1.631106	1.666907	1.690507	1.713258	1.738958	1.754558	1.768009	1.779809	1.790959	1.775034	1.784034	1.671756	1.791234	1.715257	1.789309	1.796209	1.797784	1.809184	1.802684	1.811234	1.815434
20.000000	0.822594	0.795643	0.785242	0.725090	0.888393	0.845992	1.085846	1.015645	0.915742	1.060695	1.170897	1.277499	1.350651	1.411702	1.466503	1.517554	1.556055	1.599256	1.630656	1.666107	1.682082	1.700357	1.721357	1.714457	1.679756	1.661756	1.747858	1.731757	1.742207	1.625955	1.745208	1.677556	1.729857	1.737457	1.755108	1.766508	1.752758	1.764108	1.770858
20.500000	0.823094	0.805792	0.759816	0.699464	0.864542	0.818591	1.058120	0.971793	0.863016	1.017419	1.132771	1.220198	1.310800	1.379051	1.440202	1.489753	1.535004	1.578505	1.607255	1.638906	1.657306	1.661706	1.644806	1.629656	1.614705	1.601755	1.719632	1.701832	1.711607	1.583755	1.700107	1.642606	1.689532	1.699482	1.722933	1.737658	1.717432	1.729083	1.733783
21.000000	0.835644	0.814592	0.734140	0.672688	0.836491	0.787090	1.033845	0.936242	0.820890	0.979443	1.097795	1.141946	1.257198	1.331250	1.393851	1.448752	1.497153	1.531304	1.565204	1.583405	1.587805	1.580104	1.570004	1.558654	1.543654	1.527803	1.675556	1.655256	1.666656	1.516703	1.655006	1.583754	1.643306	1.652106	1.677106	1.692707	1.666606	1.679807	1.683757
21.500000	0.848994	0.822342	0.713589	0.651837	0.812290	0.760239	1.009694	0.899841	0.782089	0.945842	1.074395	1.121196	1.174747	1.272599	1.340850	1.397451	1.446702	1.489353	1.513453	1.524254	1.520954	1.511853	1.501303	1.490653	1.477452	1.465352	1.648031	1.624956	1.634631	1.445502	1.613956	1.514353	1.597580	1.605530	1.640081	1.655056	1.613130	1.626380	1.629730
22.000000	0.864594	0.837092	0.693788	0.631586	0.790489	0.737638	0.984793	0.866940	0.748238	0.914241	1.042294	1.088045	1.143696	1.185097	1.268448	1.330650	1.378701	1.416501	1.434102	1.440952	1.439852	1.434752	1.426101	1.414701	1.400201	1.387951	1.605805	1.581455	1.591005	1.340200	1.560454	1.430251	1.551854	1.558954	1.587555	1.603905	1.566054	1.581305	1.584955
22.500000	0.886444	0.850392	0.679538	0.621486	0.778114	0.725388	0.973968	0.851165	0.728463	0.890041	1.020393	1.069969	1.129796	1.203572	1.173946	1.249098	1.302499	1.335500	1.356250	1.360500	1.358450	1.352850	1.343850	1.331449	1.320699	1.308649	1.562079	1.534604	1.542854	1.265973	1.506203	1.310399	1.500003	1.506828	1.537153	1.554104	1.511378	1.527253	1.530328
23.000000	0.895644	0.864342	0.664437	0.609936	0.763689	0.713138	0.955743	0.821689	0.700537	0.864690	0.999193	1.047644	1.106045	1.214947	1.147846	1.224398	1.222948	1.250198	1.269098	1.279999	1.278249	1.268598	1.260598	1.251848	1.242448	1.231847	1.527004	1.498553	1.506853	1.204547	1.464702	1.162446	1.460352	1.459627	1.491452	1.515753	1.468202	1.484802	1.477452
23.500000	0.904344	0.873441	0.656812	0.605885	0.758814	0.701062	0.939642	0.806389	0.688012	0.845490	0.978918	1.031469	1.089970	1.197897	1.115495	1.192722	1.218647	1.147146	1.164696	1.170146	1.170746	1.168196	1.163746	1.157546	1.149895	1.139695	1.483678	1.453977	1.461477	1.142895	1.413701	1.103444	1.410151	1.415801	1.448451	1.466227	1.415326	1.432276	1.434676
24.000000	0.909543	0.892092	0.656787	0.607636	0.749838	0.697237	0.934342	0.793689	0.677887	0.835890	0.967243	1.017394	1.076995	1.187247	1.091495	1.167797	1.219048	1.113395	1.125245	1.128695	1.127995	1.124095	1.117745	1.105945	1.135245	1.121245	1.441551	1.409751	1.416101	1.081094	1.362350	1.043843	1.359099	1.363949	1.397300	1.415050	1.360949	1.378299	1.380549
24.500000	0.923993	0.915893	0.656462	0.606736	0.750089	0.693737	0.925592	0.787089	0.670987	0.821765	0.952367	1.002268	1.059969	1.167647	1.060144	1.135446	1.186647	1.076219	1.084019	1.086094	1.084369	1.079219	1.071219	1.062594	1.097294	1.082769	1.409426	1.376925	1.382725	1.032884	1.319919	1.000542	1.324049	1.328524	1.352849	1.370199	1.313598	1.330823	1.332648
25.000000	0.959995	0.936743	0.661187	0.614536	0.748389	0.698088	0.921642	0.778439	0.667787	0.814690	0.942242	0.989493	1.046144	1.154846	1.037644	1.112245	1.158496	1.042543	1.045193	1.044593	1.040643	1.033343	1.023243	1.012442	1.049393	1.033193	1.365450	1.332349	1.337699	0.984675	1.277488	0.957241	1.277647	1.282148	1.316798	1.335149	1.277047	1.295098	1.297098
25.500000	0.902668	0.888367	0.664562	0.619536	0.752289	0.696163	0.915767	0.774789	0.665537	0.801989	0.924917	0.972118	1.028694	1.137621	1.014268	1.088745	1.139321	1.020768	1.019993	1.018093	1.012943	1.003968	0.987267	0.980842	1.019268	0.994642	1.327099	1.293373	1.298148	0.946815	1.240232	0.918715	1.236646	1.240646	1.275422	1.293872	1.234796	1.252996	1.255096
26.000000	0.881694	0.835841	0.670438	0.627287	0.749889	0.699188	0.913842	0.768739	0.661037	0.794639	0.916192	0.963493	1.019844	1.127946	0.993043	1.065744	1.114745	0.992042	0.985442	0.980342	0.973492	0.963841	0.951291	0.939941	0.980842	0.964241	1.298298	1.264997	1.269847	0.917790	1.202976	0.887814	1.208446	1.212196	1.247197	1.257196	1.196845	1.214896	1.216696
26.500000	0.875793	0.837116	0.673238	0.628911	0.750739	0.701888	0.904942	0.759039	0.655911	0.785264	0.904841	0.952367	1.008468	1.116371	0.980968	1.051594	1.098120	0.973692	0.964967	0.958592	0.943891	0.933291	0.919940	0.908165	0.949491	0.932940	1.264147	1.231071	1.235721	0.887214	1.170970	0.865163	1.175370	1.179170	1.214171	1.232746	1.172445	1.190520	1.192270
27.000000	0.941522	0.835291	0.676238	0.636887	0.754039	0.701488	0.899392	0.756489	0.658537	0.783789	0.900992	0.947792	1.002644	1.102245	0.958692	1.026343	1.071744	0.946641	0.935891	0.929641	0.922241	0.912190	0.899140	0.887790	0.925265	0.907990	1.242197	1.209346	1.205896	0.860388	1.139494	0.839888	1.143794	1.146794	1.181045	1.198895	1.137894	1.155344	1.156644
27.500000	1.007851	0.833841	0.680088	0.642287	0.750789	0.699513	0.892292	0.752939	0.659887	0.780789	0.894741	0.938342	0.989843	1.092795	0.947492	1.013343	1.051218	0.925791	0.913140	0.906165	0.898590	0.888565	0.875714	0.864789	0.907265	0.889414	1.214746	1.182446	1.186596	0.847788	1.115319	0.829438	1.125769	1.128744	1.162495	1.180245	1.119694	1.136894	1.137819
28.000000	1.013802	0.836091	0.684238	0.644137	0.749939	0.702088	0.891542	0.756489	0.667587	0.781389	0.884341	0.925142	0.975193	1.076594	0.928791	0.993892	1.037943	0.914041	0.900690	0.893740	0.881965	0.870169	0.863389	0.852489	0.887139	0.870839	1.187646	1.155095	1.158445	0.825538	1.091143	0.808137	1.096243	1.098443	1.131144	1.148244	1.087643	1.104393	1.105143
28.500000	1.014552	0.841542	0.684988	0.651637	0.752964	0.706638	0.890717	0.756689	0.668537	0.776264	0.880766	0.921642	0.970593	1.064669	0.915191	0.978242	1.021168	0.898940	0.884915	0.877840	0.870439	0.857024	0.847789	0.837089	0.872714	0.863014	1.172945	1.141270	1.136119	0.819013	1.068818	0.794762	1.074218	1.070292	1.101368	1.124994	1.065192	1.073292	1.073817
29.000000	1.007201	0.843142	0.692638	0.656487	0.754289	0.711088	0.887142	0.752689	0.667437	0.770139	0.871341	0.911541	0.960542	1.059694	0.910391	0.972642	1.015243	0.894740	0.879690	0.866164	0.858539	0.843879	0.834989	0.818838	0.858289	0.848614	1.143545	1.111494	1.113794	0.796437	1.046492	0.781386	1.052192	1.053942	1.085443	1.101743	1.042742	1.058792	1.059442
29.500000	1.006401	0.842667	0.700113	0.665337	0.761839	0.716413	0.886467	0.755439	0.673987	0.771989	0.866040	0.907466	0.955892	1.060369	0.898590	0.959292	1.000617	0.881965	0.866065	0.858389	0.850689	0.834933	0.826538	0.815213	0.853864	0.838338	1.132045	1.100544	1.092443	0.783461	1.024816	0.768761	1.030266	1.031741	1.062392	1.078142	1.020241	1.035841	1.036391
30.000000	1.005601	0.862343	0.711439	0.673937	0.762789	0.718588	0.881991	0.767289	0.688888	0.768088	0.884392	0.903391	0.951242	1.061045	0.900291	0.958692	0.998893	0.895491	0.865240	0.847739	0.837589	0.825988	0.812388	0.801138	0.838688	0.823638	1.109444	1.078893	1.080893	0.781837	1.015542	0.769186	1.021742	1.023142	1.052142	1.058242	1.000390	1.015091	1.015191
31.000000	1.040403	0.876193	0.727339	0.694438	0.780990	0.741139	0.894392	0.777940	0.705438	0.781489	0.886142	0.922292	0.964843	1.053795	0.893341	0.946292	1.002194	0.888141	0.868641	0.857440	0.835839	0.822889	0.821389	0.795488	0.835089	0.813888	1.095244	1.066544	1.055193	0.767986	0.997492	0.764586	1.005792	1.006492	1.024242	1.060843	0.995891	1.018692	1.018742
32.000000	1.058853	0.890944	0.746740	0.715589	0.795590	0.757840	0.900942	0.790340	0.723339	0.790839	0.890242	0.924343	0.964243	1.048945	0.890291	0.939342	0.994094	0.885091	0.865391	0.854040	0.831889	0.818989	0.818789	0.792788	0.830289	0.809488	1.074444	1.047093	1.034792	0.765536	0.979441	0.763086	0.986791	0.988891	1.002091	1.040243	0.977441	0.999492	0.999392
33.000000	1.074204	0.906195	0.766740	0.736889	0.810941	0.775440	0.908643	0.803991	0.741989	0.801740	0.896192	0.928043	0.965494	1.045945	0.890291	0.935742	0.988994	0.885441	0.865791	0.854490	0.831789	0.819239	0.820289	0.794338	0.829639	0.809438	1.058144	1.032293	1.018892	0.767336	0.966291	0.765437	0.972641	0.975941	0.985091	1.024443	0.963991	0.985242	0.984942
34.000000	1.087405	0.921595	0.786641	0.758190	0.826842	0.793091	0.917443	0.818441	0.760890	0.813690	0.903393	0.933343	0.968444	1.044595	0.892641	0.934692	0.986544	0.888392	0.869041	0.857891	0.834939	0.822589	0.824939	0.798988	0.832239	0.812588	1.045794	1.021293	1.007042	0.772387	0.957291	0.770837	0.962591	0.966941	0.972491	1.012643	0.954741	0.975192	0.974692
35.000000	1.098705	0.936596	0.806342	0.779141	0.842742	0.810791	0.926744	0.833192	0.779790	0.826441	0.911643	0.939693	0.972544	1.044495	0.896841	0.935592	0.986244	0.893342	0.874591	0.863491	0.840540	0.828289	0.831690	0.805988	0.837139	0.818038	1.036493	1.013493	0.998642	0.779587	0.951591	0.778487	0.955791	0.961241	0.963190	1.004193	0.948841	0.968392	0.967891
36.000000	1.108355	0.951397	0.825642	0.799541	0.858543	0.828192	0.936394	0.848092	0.798291	0.839491	0.920393	0.946744	0.977444	1.045545	0.902392	0.938092	0.987394	0.899742	0.881392	0.870741	0.847590	0.835739	0.840140	0.814739	0.843789	0.825289	1.029943	1.008293	0.992792	0.788587	0.948541	0.787637	0.951741	0.958141	0.956840	0.998593	0.945591	0.964392	0.963742
37.000000	1.116855	0.965497	0.844293	0.819092	0.874143	0.845242	0.946244	0.862893	0.816391	0.852541	0.929544	0.954244	0.982995	1.047296	0.908792	0.941842	0.989794	0.907143	0.889392	0.878992	0.855990	0.844340	0.849590	0.824489	0.851890	0.833889	1.025544	1.005043	0.989192	0.798538	0.947591	0.797738	0.949791	0.957091	0.952840	0.995093	0.944391	0.962592	0.961792
38.000000	1.124056	0.978848	0.862093	0.837793	0.889194	0.861543	0.955845	0.877093	0.833842	0.865642	0.938744	0.961994	0.988795	1.049596	0.915992	0.946443	0.993045	0.915093	0.898092	0.887792	0.865091	0.853740	0.859741	0.834789	0.860640	0.843139	1.022694	1.003393	0.987292	0.809238	0.948241	0.808488	0.949541	0.957592	0.950640	0.993243	0.944841	0.962292	0.961592
39.000000	1.130306	0.991448	0.878994	0.855693	0.903594	0.877193	0.965345	0.890994	0.850492	0.878292	0.947894	0.969745	0.994895	1.052196	0.923343	0.951693	0.996895	0.923443	0.907093	0.897092	0.874541	0.863390	0.870191	0.845640	0.869740	0.852990	1.021244	1.003143	0.986592	0.820388	0.950042	0.819588	0.950391	0.959242	0.949840	0.992793	0.946641	0.963442	0.962592
40.000000	1.135706	1.003099	0.894845	0.872294	0.917345	0.891894	0.974395	0.904044	0.866193	0.890543	0.956895	0.977245	1.000795	1.054996	0.930993	0.956993	1.000995	0.931693	0.916093	0.906543	0.884091	0.873341	0.880542	0.856490	0.879091	0.862790	1.020794	1.003744	0.986942	0.831389	0.952592	0.830539	0.952291	0.961742	0.950241	0.993343	0.949141	0.965292	0.964442
41.000000	1.140256	1.013649	0.909695	0.887894	0.930145	0.905644	0.982946	0.916494	0.880843	0.902093	0.965295	0.984495	1.006596	1.057746	0.938393	0.962593	1.005295	0.939894	0.924943	0.915593	0.893392	0.883041	0.890792	0.866941	0.888441	0.872590	1.020994	1.004844	0.988043	0.842289	0.955842	0.841439	0.954692	0.964792	0.951291	0.994493	0.952292	0.967842	0.966892
42.000000	1.143856	1.023349	0.923296	0.902195	0.941895	0.918295	0.990946	0.927895	0.894444	0.912893	0.973295	0.991196	1.011996	1.060297	0.945593	0.967994	1.009496	0.947744	0.933444	0.924393	0.902542	0.892342	0.900592	0.877141	0.897441	0.881891	1.021594	1.006394	0.989543	0.852939	0.959292	0.851939	0.957442	0.968143	0.952791	0.996043	0.955692	0.970593	0.969743
43.000000	1.146606	1.031850	0.935796	0.915395	0.952746	0.929845	0.998046	0.938445	0.906944	0.922994	0.980596	0.997496	1.016846	1.062647	0.952194	0.973094	1.013346	0.955094	0.941394	0.932694	0.911092	0.901142	0.909843	0.886841	0.905942	0.890941	1.022494	1.008044	0.991093	0.862840	0.962692	0.861690	0.960392	0.971443	0.954541	0.997744	0.959142	0.973493	0.972643
44.000000	1.148606	1.039300	0.946946	0.927095	0.962596	0.940346	1.004447	0.948046	0.918295	0.932044	0.987096	1.002996	1.021196	1.064647	0.958494	0.977744	1.016946	0.961895	0.948894	0.940344	0.919143	0.909392	0.918343	0.895792	0.913892	0.899241	1.023245	1.009694	0.992843	0.872240	0.965993	0.870990	0.963092	0.974593	0.956391	0.999494	0.962592	0.976393	0.975393
45.000000	1.149656	1.045500	0.956847	0.937696	0.971297	0.949746	1.010047	0.956496	0.928295	0.940194	0.992796	1.007846	1.024897	1.065997	0.964044	0.981945	1.019946	0.967945	0.955395	0.947244	0.926343	0.916893	0.926143	0.903892	0.921093	0.906792	1.023845	1.011045	0.994293	0.880741	0.969043	0.879391	0.965593	0.977493	0.958042	1.001044	0.965493	0.978893	0.977943
46.000000	1.149856	1.050751	0.965497	0.946996	0.978697	0.957896	1.014697	0.963896	0.937195	0.947295	0.997597	1.011797	1.027997	1.066947	0.968745	0.985495	1.022346	0.973095	0.961195	0.953245	0.932693	0.923543	0.932844	0.911142	0.927393	0.913692	1.024295	1.012095	0.995344	0.888291	0.971743	0.886891	0.967743	0.979944	0.959542	1.002244	0.968193	0.981144	0.980043
47.000000	1.149306	1.054701	0.972897	0.954947	0.985047	0.964697	1.018348	0.970097	0.944796	0.953395	1.001497	1.014997	1.030097	1.066948	0.972695	0.988145	1.024147	0.977546	0.965995	0.958395	0.938194	0.929393	0.938744	0.917393	0.932893	0.919592	1.024095	1.012645	0.996044	0.895041	0.973843	0.893591	0.969393	0.981894	0.960442	1.002894	0.970343	0.982744	0.981794
48.000000	1.147706	1.057501	0.978848	0.961497	0.990198	0.970447	1.020898	0.975097	0.951196	0.958345	1.004447	1.017097	1.031447	1.066448	0.975695	0.990145	1.025147	0.980946	0.969945	0.962545	0.942694	0.934094	0.943644	0.922693	0.937393	0.924343	1.023445	1.012645	0.996194	0.900692	0.975144	0.899042	0.970593	0.983144	0.960892	1.003045	0.971693	0.983644	0.982694
49.000000	1.145156	1.059201	0.983648	0.966697	0.994148	0.974747	1.022648	0.978947	0.956146	0.962146	1.006347	1.018297	1.031847	1.065148	0.977745	0.991295	1.025297	0.983246	0.972896	0.965695	0.946244	0.937844	0.947395	0.926893	0.940944	0.928343	1.022346	1.011995	0.995544	0.905242	0.975794	0.903592	0.970793	0.983694	0.960742	1.002545	0.972344	0.984044	0.982994
50.000000	1.141706	1.059551	0.986898	0.970598	0.996798	0.977897	1.023098	0.981547	0.959997	0.964746	1.007197	1.018548	1.031298	1.062848	0.978846	0.991546	1.024447	0.984696	0.974546	0.967796	0.948695	0.940494	0.950045	0.929994	0.943444	0.931093	1.020246	1.010496	0.994295	0.908692	0.975694	0.907092	0.970444	0.983344	0.959843	1.001195	0.972294	0.983544	0.982494
51.000000	1.137156	1.058752	0.988999	0.973048	0.998148	0.979748	1.022548	0.982898	0.962447	0.966246	1.006898	1.017698	1.029598	1.059748	0.978846	0.990696	1.022697	0.984947	0.975296	0.968596	0.949895	0.941944	0.951645	0.931994	0.944794	0.932744	1.017546	1.008246	0.992245	0.911143	0.974644	0.909342	0.969194	0.982195	0.958243	0.999145	0.971294	0.982095	0.981195
52.000000	1.131806	1.056802	0.989699	0.974248	0.998349	0.980248	1.020799	0.982998	0.963497	0.966346	1.005548	1.015798	1.027198	1.055748	0.977796	0.988946	1.019998	0.984097	0.974846	0.968496	0.950045	0.942295	0.951995	0.932794	0.944945	0.933344	1.013896	1.005096	0.989295	0.912193	0.972695	0.910443	0.966894	0.979995	0.955593	0.996145	0.969344	0.979945	0.978895
53.000000	1.125356	1.053552	0.988949	0.974048	0.997149	0.979448	1.017949	0.981998	0.963147	0.965397	1.003098	1.012648	1.023498	1.050649	0.975696	0.985996	1.016248	0.982047	0.973297	0.967046	0.948995	0.941495	0.951146	0.932394	0.944045	0.932594	1.009496	1.000996	0.985495	0.912193	0.969695	0.910193	0.963844	0.976845	0.952243	0.992246	0.966395	0.976545	0.975695
54.000000	1.117806	1.049252	0.987099	0.972599	0.994699	0.977498	1.014049	0.979498	0.961648	0.963097	0.999348	1.008648	1.018648	1.044699	0.972396	0.982147	1.011598	0.978997	0.970547	0.964497	0.946945	0.939445	0.949146	0.930695	0.941995	0.930794	1.004097	0.996046	0.980595	0.910893	0.965795	0.908943	0.959645	0.972845	0.947943	0.987496	0.962595	0.972445	0.971445
55.000000	1.109356	1.043552	0.983750	0.969749	0.991049	0.974149	1.008799	0.975848	0.958798	0.959647	0.994548	1.003298	1.012948	1.037699	0.968097	0.977147	1.005798	0.974697	0.966497	0.960697	0.943546	0.936295	0.945946	0.927745	0.938595	0.927845	0.997647	0.990046	0.974845	0.908444	0.960745	0.906394	0.954445	0.967646	0.942444	0.981546	0.957595	0.967145	0.966145
56.000000	1.099856	1.036802	0.979150	0.965399	0.985999	0.969449	1.002499	0.970999	0.954598	0.954847	0.988549	0.996899	1.006049	1.029549	0.962447	0.970947	0.998798	0.969098	0.961397	0.955697	0.938796	0.931796	0.941396	0.923695	0.933995	0.923545	0.990147	0.982897	0.968046	0.904644	0.954695	0.902544	0.948245	0.961446	0.936094	0.974746	0.951395	0.960696	0.959896
57.000000	1.089105	1.028702	0.973200	0.959899	0.979650	0.963449	0.994999	0.964799	0.949148	0.948897	0.981299	0.989199	0.997949	1.020499	0.955647	0.963747	0.990798	0.962498	0.954997	0.949497	0.933046	0.926146	0.935546	0.918295	0.928246	0.917945	0.981797	0.974847	0.960146	0.899694	0.947446	0.897494	0.940895	0.954046	0.928644	0.966746	0.944395	0.953246	0.952446
58.000000	1.077405	1.019452	0.965900	0.952999	0.972050	0.956299	0.986249	0.957299	0.942348	0.941648	0.972849	0.980499	0.988749	1.010299	0.947697	0.955247	0.981648	0.954598	0.947448	0.942047	0.925846	0.919196	0.928547	0.911746	0.921196	0.911195	0.972297	0.965697	0.951196	0.893444	0.939096	0.891194	0.932595	0.945696	0.920194	0.957796	0.936096	0.944846	0.943896
59.000000	1.064705	1.009002	0.957250	0.944849	0.963150	0.947799	0.976300	0.948699	0.934248	0.933198	0.963249	0.970549	0.978399	0.998999	0.938597	0.945747	0.971399	0.945598	0.938648	0.933447	0.917546	0.911096	0.920447	0.903796	0.913046	0.903346	0.961697	0.955347	0.941146	0.885945	0.929746	0.883644	0.923095	0.935996	0.910644	0.947697	0.926596	0.935096	0.934346
60.000000	1.050905	0.997402	0.947500	0.935350	0.953100	0.937999	0.965200	0.938599	0.924849	0.923498	0.952549	0.959399	0.966899	0.986699	0.928247	0.934997	0.959949	0.935248	0.928498	0.923548	0.908097	0.901696	0.910847	0.894646	0.903546	0.893996	0.950047	0.944047	0.930096	0.877095	0.919046	0.874895	0.912396	0.925346	0.899945	0.936497	0.916196	0.924396	0.923496
61.000000	1.035905	0.984503	0.936350	0.924650	0.941700	0.926949	0.953000	0.927399	0.914149	0.912548	0.940549	0.947149	0.954249	0.973099	0.916698	0.923098	0.947399	0.923648	0.917248	0.912348	0.897347	0.891046	0.900147	0.884396	0.892946	0.883546	0.937297	0.931447	0.917746	0.866995	0.907446	0.864795	0.900646	0.913546	0.888145	0.924147	0.904446	0.912396	0.911646
62.000000	1.019955	0.970453	0.923950	0.912550	0.929100	0.914549	0.939600	0.915049	0.902349	0.900248	0.927449	0.933649	0.940499	0.958499	0.904098	0.910048	0.933749	0.911048	0.904898	0.900048	0.885297	0.879247	0.888197	0.872746	0.881047	0.871946	0.923548	0.917897	0.904397	0.855795	0.894546	0.853495	0.887796	0.900497	0.875245	0.910647	0.891596	0.899447	0.898596
63.000000	1.002805	0.955103	0.910350	0.899300	0.915100	0.901050	0.924950	0.901449	0.889099	0.886848	0.913049	0.919149	0.925599	0.942999	0.890298	0.895898	0.918949	0.897198	0.891248	0.886648	0.872147	0.866197	0.875097	0.859896	0.867897	0.859096	0.908548	0.903197	0.889947	0.843245	0.880496	0.840995	0.873696	0.886447	0.861195	0.896197	0.877646	0.885197	0.884497
64.000000	0.984755	0.938803	0.895501	0.884750	0.900100	0.886250	0.909200	0.886549	0.874749	0.872198	0.897549	0.903349	0.909449	0.926150	0.875248	0.880448	0.902999	0.882098	0.876348	0.871948	0.857697	0.851847	0.860747	0.845847	0.853597	0.844946	0.892548	0.887348	0.874397	0.829645	0.865447	0.827345	0.858646	0.871097	0.846045	0.880447	0.862546	0.869997	0.869197
65.000000	0.965605	0.921203	0.879451	0.868850	0.883750	0.870350	0.892250	0.870350	0.859149	0.856398	0.880899	0.886449	0.892349	0.908350	0.858948	0.864048	0.885949	0.865849	0.860298	0.855998	0.842147	0.836547	0.845098	0.830597	0.838047	0.829646	0.875448	0.870398	0.857697	0.814546	0.849197	0.812395	0.842296	0.854797	0.829795	0.863747	0.846296	0.853547	0.852697
66.000000	0.945255	0.902603	0.862151	0.851850	0.866250	0.853150	0.874100	0.853200	0.842199	0.839449	0.863149	0.868449	0.874099	0.889450	0.841648	0.846348	0.867799	0.848499	0.843148	0.838898	0.825347	0.819797	0.828298	0.814147	0.821347	0.813097	0.857198	0.852498	0.839997	0.798546	0.831747	0.796196	0.824946	0.837197	0.812545	0.845797	0.828997	0.835947	0.835147
67.000000	0.923955	0.882853	0.843651	0.833700	0.847500	0.834800	0.854900	0.834800	0.824199	0.821249	0.844249	0.849300	0.854750	0.869450	0.823198	0.827698	0.848549	0.829999	0.824849	0.820698	0.807397	0.802047	0.810448	0.796497	0.803547	0.795447	0.837998	0.833298	0.821047	0.781196	0.813247	0.778896	0.806396	0.818647	0.794045	0.826847	0.810497	0.817347	0.816597
68.000000	0.901705	0.861852	0.824001	0.814450	0.827700	0.815300	0.834750	0.815200	0.804999	0.801899	0.824250	0.829050	0.834250	0.848400	0.803648	0.807898	0.828149	0.810399	0.805299	0.801348	0.788298	0.783047	0.791398	0.777747	0.784597	0.776597	0.817648	0.813148	0.801097	0.762746	0.793547	0.760446	0.786796	0.798947	0.774546	0.806948	0.791047	0.797647	0.796897
69.000000	0.878354	0.839952	0.803251	0.794000	0.806750	0.794700	0.813300	0.794550	0.784699	0.781399	0.803100	0.807800	0.812750	0.826400	0.782998	0.786948	0.806749	0.789649	0.784749	0.780898	0.768248	0.763097	0.771098	0.757897	0.764347	0.756647	0.796198	0.791948	0.780197	0.743196	0.772897	0.740846	0.766247	0.778097	0.753946	0.785748	0.770347	0.776847	0.776097
70.000000	0.854004	0.816952	0.781451	0.772400	0.784650	0.773050	0.790850	0.772700	0.763299	0.759949	0.781000	0.785400	0.790150	0.803300	0.761148	0.765048	0.784399	0.767799	0.763099	0.759298	0.746898	0.741847	0.749848	0.736847	0.743297	0.735747	0.773898	0.769698	0.758097	0.722446	0.751247	0.720096	0.744447	0.756297	0.732346	0.763698	0.748747	0.754897	0.754147
71.000000	0.828754	0.792802	0.758501	0.749650	0.761500	0.750300	0.767450	0.749850	0.740699	0.737299	0.757700	0.762050	0.766550	0.779350	0.738348	0.741998	0.760899	0.744949	0.740449	0.736699	0.724548	0.719547	0.727548	0.714847	0.720947	0.713647	0.750448	0.746398	0.735047	0.700596	0.728497	0.698246	0.721747	0.733347	0.709746	0.740498	0.725897	0.732097	0.731397
72.000000	0.802504	0.767802	0.734551	0.725850	0.737350	0.726400	0.743000	0.726050	0.717149	0.713699	0.733450	0.737700	0.741950	0.754200	0.714498	0.717948	0.736399	0.721099	0.716649	0.713149	0.701198	0.696298	0.704148	0.691647	0.697548	0.690397	0.725998	0.722098	0.710997	0.677696	0.704697	0.675396	0.698097	0.709548	0.686046	0.716348	0.702197	0.708147	0.707447
73.000000	0.775254	0.741752	0.709551	0.701100	0.712000	0.701600	0.717550	0.701200	0.692549	0.689049	0.708200	0.712300	0.716500	0.728250	0.689698	0.692998	0.710949	0.696099	0.691849	0.688399	0.676698	0.672048	0.679748	0.667497	0.673198	0.666147	0.700648	0.696948	0.685897	0.653796	0.679897	0.651496	0.673247	0.684598	0.661446	0.691198	0.677497	0.683347	0.682497
74.000000	0.747154	0.714702	0.683501	0.675250	0.685800	0.675650	0.691100	0.675250	0.666949	0.663399	0.682050	0.685950	0.689900	0.701250	0.663848	0.666948	0.684599	0.670249	0.666199	0.662799	0.651348	0.646748	0.654298	0.642297	0.647948	0.641047	0.674348	0.670648	0.659997	0.628896	0.654097	0.626646	0.647547	0.658748	0.635796	0.665148	0.651747	0.657397	0.656697
75.000000	0.718254	0.686752	0.656451	0.648550	0.658550	0.648850	0.663750	0.648500	0.640499	0.636749	0.654950	0.658700	0.662550	0.673400	0.637098	0.640148	0.657199	0.643399	0.639349	0.636199	0.624948	0.620448	0.627848	0.616247	0.621548	0.614947	0.646998	0.643648	0.632997	0.602947	0.627397	0.600696	0.620997	0.632048	0.609346	0.638248	0.625147	0.630698	0.630047
76.000000	0.688304	0.657902	0.628651	0.620950	0.630500	0.621100	0.635350	0.620750	0.612949	0.609349	0.626900	0.630400	0.634200	0.644850	0.609498	0.612298	0.628949	0.615599	0.611799	0.608549	0.597698	0.593248	0.600498	0.589147	0.594398	0.587747	0.618948	0.615598	0.605148	0.576147	0.599847	0.573896	0.593397	0.604298	0.581946	0.610298	0.597497	0.602998	0.602348
77.000000	0.657753	0.628202	0.599751	0.592300	0.601450	0.592500	0.606250	0.591950	0.584599	0.580899	0.598000	0.601400	0.604950	0.615200	0.580848	0.583548	0.599999	0.587149	0.583349	0.580149	0.569548	0.565198	0.572298	0.561147	0.566198	0.559847	0.589948	0.586798	0.576548	0.548447	0.571397	0.546196	0.565047	0.575798	0.553696	0.581448	0.569147	0.574348	0.573748
78.000000	0.626303	0.597702	0.570150	0.562900	0.571600	0.563000	0.576350	0.562550	0.555249	0.551499	0.568200	0.571650	0.574950	0.584850	0.551448	0.554048	0.570099	0.557599	0.553849	0.550899	0.540448	0.536198	0.543148	0.532198	0.537298	0.530997	0.560098	0.557098	0.547048	0.519797	0.541997	0.517597	0.535797	0.546448	0.524496	0.551898	0.539847	0.544998	0.544398
79.000000	0.594003	0.566452	0.539550	0.532550	0.540800	0.532700	0.545550	0.532250	0.525199	0.521549	0.537600	0.540950	0.544199	0.553700	0.521298	0.523798	0.539449	0.527299	0.523749	0.520849	0.510498	0.506448	0.513248	0.502548	0.507398	0.501247	0.529598	0.526598	0.516798	0.490397	0.512048	0.488247	0.505797	0.516098	0.494546	0.521548	0.509797	0.514848	0.514148
80.000000	0.561203	0.534402	0.508350	0.501550	0.509250	0.501600	0.514150	0.501150	0.494199	0.490599	0.506399	0.509499	0.512649	0.521950	0.490348	0.492748	0.507849	0.496199	0.492899	0.489849	0.479848	0.475748	0.482598	0.472098	0.476748	0.470847	0.498198	0.495348	0.485748	0.460197	0.481098	0.457947	0.474847	0.485198	0.463846	0.490398	0.478947	0.483798	0.483248
81.000000	0.527453	0.501551	0.476350	0.469650	0.477000	0.469750	0.481900	0.469250	0.462699	0.458899	0.474249	0.477399	0.480449	0.489399	0.458598	0.460898	0.475799	0.464449	0.461199	0.458249	0.448448	0.444548	0.451148	0.440798	0.445448	0.439547	0.466248	0.463448	0.453848	0.429197	0.449398	0.426947	0.443397	0.453598	0.432446	0.458498	0.447297	0.452098	0.451548
82.000000	0.493253	0.468051	0.443650	0.437200	0.444100	0.437200	0.448850	0.436700	0.430249	0.426649	0.441599	0.444449	0.447449	0.456149	0.426148	0.428398	0.442949	0.431949	0.428699	0.425949	0.416348	0.412398	0.418998	0.408898	0.413348	0.407697	0.433398	0.430748	0.421498	0.397397	0.417148	0.395197	0.411097	0.421198	0.400396	0.426048	0.415147	0.419748	0.419198
83.000000	0.458352	0.434001	0.410300	0.404050	0.410500	0.404000	0.415300	0.403499	0.397299	0.393599	0.408249	0.411049	0.413949	0.422249	0.393248	0.395198	0.409399	0.398899	0.395699	0.393049	0.383598	0.379748	0.386198	0.376298	0.380748	0.375047	0.400148	0.397548	0.388298	0.365097	0.384248	0.362897	0.378197	0.388148	0.367546	0.392798	0.382197	0.386698	0.386198
84.000000	0.422952	0.399301	0.376250	0.370200	0.376200	0.370250	0.381200	0.369749	0.363649	0.359999	0.374249	0.376949	0.379749	0.387849	0.359448	0.361348	0.375299	0.365149	0.361999	0.359399	0.350198	0.346348	0.352748	0.342998	0.347298	0.341797	0.366198	0.363598	0.354698	0.332047	0.350648	0.329897	0.344697	0.354498	0.334246	0.358998	0.348647	0.353148	0.352498
85.000000	0.386952	0.364001	0.341600	0.335800	0.341300	0.335749	0.346400	0.335449	0.329399	0.325849	0.339649	0.342249	0.344999	0.352849	0.325248	0.327048	0.340699	0.330699	0.327799	0.325199	0.316198	0.312448	0.318698	0.309298	0.313398	0.308047	0.331548	0.329148	0.320398	0.298347	0.316498	0.296197	0.310647	0.320198	0.300296	0.324648	0.314597	0.318848	0.318348
86.000000	0.350602	0.328301	0.306550	0.300850	0.306000	0.300899	0.311150	0.300399	0.294749	0.291149	0.304549	0.307149	0.309849	0.317299	0.290498	0.292198	0.305649	0.295849	0.292949	0.290448	0.281598	0.278098	0.284248	0.274898	0.278948	0.273697	0.296648	0.294248	0.285548	0.264147	0.281748	0.262047	0.276047	0.285598	0.265896	0.289748	0.279947	0.284148	0.283698
87.000000	0.313652	0.292001	0.270900	0.265449	0.270099	0.265549	0.275449	0.265049	0.259549	0.255949	0.269099	0.271499	0.274049	0.281449	0.255298	0.256898	0.269999	0.260549	0.257699	0.255248	0.246598	0.243148	0.249198	0.240048	0.244048	0.238747	0.261148	0.258748	0.250348	0.229547	0.246747	0.227497	0.240997	0.250248	0.230896	0.254498	0.244847	0.248998	0.248398
88.000000	0.276402	0.255451	0.234950	0.229549	0.233899	0.229649	0.239349	0.229299	0.223849	0.220349	0.233099	0.235499	0.237999	0.245199	0.219498	0.221148	0.233949	0.224799	0.222149	0.219748	0.211148	0.207748	0.213648	0.204698	0.208548	0.203497	0.225148	0.222948	0.214548	0.194497	0.211097	0.192447	0.205447	0.214598	0.195546	0.218698	0.209297	0.213348	0.212798
89.000000	0.238851	0.218500	0.198500	0.193349	0.197199	0.193549	0.202899	0.193049	0.187699	0.184248	0.196749	0.199049	0.201449	0.208399	0.183498	0.185098	0.197499	0.188749	0.185998	0.183648	0.175348	0.172048	0.177848	0.169047	0.172848	0.167747	0.188898	0.186648	0.178597	0.158897	0.175147	0.156947	0.169597	0.178598	0.159746	0.182548	0.173397	0.177298	0.176898
90.000000	0.201001	0.181100	0.161749	0.156849	0.160199	0.156949	0.165949	0.156449	0.151349	0.147948	0.160049	0.162399	0.164599	0.171449	0.147148	0.148498	0.160749	0.152199	0.149598	0.147298	0.139198	0.135948	0.141648	0.133047	0.136698	0.131847	0.152398	0.150198	0.142147	0.123147	0.138997	0.121047	0.133397	0.142298	0.123596	0.146048	0.137047	0.140998	0.140447
91.000000	0.162751	0.143500	0.124749	0.119949	0.122949	0.119949	0.128949	0.119649	0.114649	0.111298	0.123149	0.125399	0.127499	0.134099	0.110448	0.111848	0.123799	0.115398	0.112898	0.110648	0.102698	0.099498	0.105098	0.096697	0.100298	0.095547	0.115348	0.113348	0.105447	0.086897	0.102297	0.084997	0.096847	0.105598	0.087196	0.109348	0.100597	0.104347	0.103797
92.000000	0.124351	0.105650	0.087549	0.082799	0.085299	0.082949	0.091549	0.082599	0.077699	0.074398	0.085999	0.088199	0.090299	0.096549	0.073548	0.074848	0.086599	0.078548	0.076048	0.073898	0.065948	0.062848	0.068348	0.060047	0.063498	0.058847	0.078298	0.076248	0.068547	0.050497	0.065497	0.048497	0.060147	0.068798	0.050596	0.072398	0.063747	0.067447	0.066947
93.000000	0.085801	0.067750	0.050049	0.045549	0.047549	0.045649	0.054049	0.045349	0.040699	0.037248	0.048599	0.050699	0.052749	0.058899	0.036348	0.037698	0.049149	0.041298	0.038848	0.036698	0.029098	0.026048	0.031448	0.023347	0.026748	0.022047	0.041098	0.039098	0.031497	0.013897	0.028497	0.011897	0.023247	0.031748	0.013846	0.035198	0.026797	0.030447	0.029947
94.000000	0.047201	0.029700	0.012449	0.008049	0.009699	0.008249	0.016449	0.007949	0.003399	-0.000052	0.011099	0.013099	0.015199	0.021149	-0.000802	0.000448	0.011599	0.004048	0.001648	-0.000402	-0.007902	-0.011003	-0.005702	-0.013653	-0.010253	-0.014753	0.003598	0.001748	-0.005803	-0.022903	-0.008703	-0.024803	-0.013803	-0.005403	-0.023154	-0.002152	-0.010303	-0.006853	-0.007303
95.000000	0.008600	-0.008450	-0.025251	-0.029451	-0.028201	-0.029151	-0.021301	-0.029601	-0.033902	-0.037302	-0.026551	-0.024501	-0.022501	-0.016651	-0.038152	-0.036952	-0.025952	-0.033452	-0.035652	-0.037702	-0.045152	-0.048103	-0.042852	-0.050653	-0.047403	-0.051853	-0.033902	-0.035702	-0.042953	-0.059803	-0.045853	-0.061703	-0.051003	-0.042703	-0.060154	-0.039502	-0.047503	-0.043953	-0.044553
96.000000	-0.030150	-0.046651	-0.063001	-0.066951	-0.066202	-0.066701	-0.059051	-0.067001	-0.071402	-0.074602	-0.064052	-0.062102	-0.060202	-0.054601	-0.075602	-0.074402	-0.063552	-0.070852	-0.073002	-0.075002	-0.082302	-0.085153	-0.080052	-0.087653	-0.084603	-0.088953	-0.071352	-0.073152	-0.080303	-0.096603	-0.083003	-0.098603	-0.088253	-0.080053	-0.097204	-0.076852	-0.084753	-0.081253	-0.081853
97.000000	-0.068750	-0.084851	-0.100601	-0.104502	-0.104102	-0.104302	-0.096701	-0.104602	-0.108752	-0.111902	-0.101602	-0.099752	-0.097952	-0.092402	-0.112802	-0.111702	-0.101152	-0.108252	-0.110402	-0.112352	-0.119503	-0.122303	-0.117252	-0.124703	-0.121703	-0.125903	-0.108902	-0.110702	-0.117703	-0.133553	-0.120253	-0.135403	-0.125353	-0.117303	-0.134304	-0.114253	-0.121903	-0.118603	-0.119003
98.000000	-0.107200	-0.122901	-0.138251	-0.142052	-0.142052	-0.141652	-0.134402	-0.141902	-0.145952	-0.149252	-0.139202	-0.137302	-0.135602	-0.130152	-0.150102	-0.149102	-0.138802	-0.145602	-0.147702	-0.149602	-0.156603	-0.159303	-0.154352	-0.161703	-0.158653	-0.163003	-0.146352	-0.147952	-0.155003	-0.170303	-0.157553	-0.172253	-0.162403	-0.154603	-0.171154	-0.151553	-0.159153	-0.155853	-0.156253
99.000000	-0.145550	-0.160751	-0.175652	-0.179402	-0.179752	-0.179052	-0.171852	-0.179152	-0.183152	-0.186402	-0.176552	-0.174802	-0.173002	-0.167802	-0.187302	-0.186252	-0.176102	-0.182852	-0.184902	-0.186752	-0.193453	-0.196303	-0.191402	-0.198603	-0.195753	-0.199803	-0.183602	-0.185202	-0.192053	-0.207153	-0.194453	-0.208904	-0.199353	-0.191703	-0.208104	-0.188803	-0.196103	-0.192903	-0.193303
100.000000	-0.183851	-0.198501	-0.212902	-0.216552	-0.217252	-0.216102	-0.209252	-0.216352	-0.220252	-0.223352	-0.213702	-0.211902	-0.210202	-0.205252	-0.224302	-0.223352	-0.213352	-0.219752	-0.221802	-0.223702	-0.230303	-0.233053	-0.228252	-0.235303	-0.232453	-0.236453	-0.220602	-0.222353	-0.228953	-0.243653	-0.231353	-0.245504	-0.236303	-0.228553	-0.244704	-0.225703	-0.232953	-0.229753	-0.230253
101.000000	-0.221601	-0.235951	-0.250052	-0.253502	-0.254602	-0.252952	-0.246302	-0.253202	-0.257002	-0.259952	-0.250702	-0.249002	-0.247252	-0.242352	-0.260953	-0.260103	-0.250252	-0.256652	-0.258602	-0.260352	-0.266953	-0.269653	-0.264953	-0.271853	-0.269003	-0.272953	-0.257503	-0.259053	-0.265653	-0.280003	-0.268053	-0.281804	-0.272753	-0.265303	-0.281154	-0.262453	-0.269553	-0.266403	-0.266953
102.000000	-0.259351	-0.273151	-0.286752	-0.290152	-0.291702	-0.289652	-0.283052	-0.289752	-0.293502	-0.296452	-0.287202	-0.285602	-0.284102	-0.279152	-0.297353	-0.296603	-0.287002	-0.293202	-0.295002	-0.296852	-0.303153	-0.305803	-0.301153	-0.308053	-0.305253	-0.309103	-0.294053	-0.295603	-0.302103	-0.316004	-0.304303	-0.317804	-0.309053	-0.301703	-0.317304	-0.299003	-0.305903	-0.302803	-0.303303
103.000000	-0.296451	-0.309952	-0.323252	-0.326452	-0.328402	-0.325902	-0.319502	-0.326002	-0.329652	-0.332603	-0.323602	-0.321952	-0.320402	-0.315702	-0.333603	-0.332603	-0.323302	-0.329352	-0.331252	-0.332902	-0.339203	-0.341803	-0.337253	-0.343903	-0.341253	-0.345003	-0.330303	-0.331853	-0.338203	-0.351754	-0.340303	-0.353504	-0.344953	-0.337703	-0.353154	-0.335153	-0.341803	-0.300501	-0.300601
104.000000	-0.333251	-0.346402	-0.359202	-0.362352	-0.364702	-0.361752	-0.355552	-0.361852	-0.365402	-0.368353	-0.359552	-0.358002	-0.356402	-0.351952	-0.369253	-0.368403	-0.359202	-0.365052	-0.366952	-0.368703	-0.374753	-0.377253	-0.372803	-0.379453	-0.376803	-0.380503	-0.366203	-0.367703	-0.373803	-0.343601	-0.337501	-0.346701	-0.346651	-0.346701	-0.346651	-0.346751	-0.346701	-0.346751	-0.346701
105.000000	-0.369601	-0.382302	-0.394752	-0.397852	-0.400553	-0.397302	-0.391052	-0.397252	-0.400752	-0.403553	-0.394952	-0.393502	-0.392002	-0.387502	-0.404553	-0.403803	-0.394752	-0.400552	-0.402202	-0.403953	-0.410003	-0.412353	-0.379001	-0.379201	-0.382501	-0.382401	-0.382451	-0.382501	-0.382401	-0.382451	-0.382501	-0.382401	-0.382501	-0.382401	-0.382501	-0.382401	-0.382501	-0.382401	-0.382501
106.000000	-0.405402	-0.417802	-0.429902	-0.432802	-0.435853	-0.432202	-0.426152	-0.432302	-0.435602	-0.438353	-0.430002	-0.428502	-0.427102	-0.422702	-0.439303	-0.438653	-0.429702	-0.435352	-0.413201	-0.413451	-0.417701	-0.417701	-0.417701	-0.417751	-0.417751	-0.417751	-0.417651	-0.417701	-0.417751	-0.417801	-0.417701	-0.417751	-0.417651	-0.417701	-0.417801	-0.417701	-0.417751	-0.417701	-0.417751
107.000000	-0.440652	-0.452602	-0.464502	-0.467203	-0.470653	-0.466552	-0.460702	-0.466702	-0.469903	-0.472703	-0.464352	-0.463002	-0.461552	-0.457402	-0.473553	-0.443551	-0.452451	-0.452551	-0.452451	-0.452401	-0.452501	-0.452451	-0.452451	-0.452451	-0.452451	-0.452501	-0.452351	-0.452401	-0.452401	-0.452451	-0.452501	-0.452401	-0.452451	-0.452501	-0.452401	-0.452451	-0.452401	-0.452451	-0.452551
108.000000	-0.475402	-0.486952	-0.498353	-0.501003	-0.504953	-0.500403	-0.494652	-0.500453	-0.503553	-0.506353	-0.498252	-0.496852	-0.495502	-0.469351	-0.486751	-0.486601	-0.486651	-0.486551	-0.486651	-0.486551	-0.486451	-0.486551	-0.486551	-0.486551	-0.486551	-0.486551	-0.486551	-0.486601	-0.486451	-0.486501	-0.486501	-0.486551	-0.486601	-0.486501	-0.486551	-0.486601	-0.486501	-0.486601	-0.486651
109.000000	-0.509302	-0.520602	-0.531653	-0.534153	-0.538453	-0.533503	-0.528003	-0.533553	-0.536603	-0.539303	-0.531353	-0.510801	-0.520301	-0.520251	-0.520201	-0.520201	-0.520051	-0.520101	-0.520001	-0.520101	-0.519951	-0.519901	-0.520051	-0.520001	-0.520001	-0.520001	-0.520001	-0.520001	-0.520001	-0.520051	-0.519901	-0.519951	-0.520001	-0.520051	-0.520101	-0.520001	-0.520051	-0.520101	-0.520001
110.000000	-0.557252	-0.553452	-0.564203	-0.566703	-0.571353	-0.566003	-0.560553	-0.565953	-0.568953	-0.571603	-0.545351	-0.553152	-0.553002	-0.552952	-0.552902	-0.552852	-0.552852	-0.552901	-0.552801	-0.552851	-0.552701	-0.552651	-0.552751	-0.552751	-0.552701	-0.552701	-0.552701	-0.552701	-0.552701	-0.552701	-0.552751	-0.552751	-0.552801	-0.552801	-0.552701	-0.552751	-0.552801	-0.552851	-0.552751
111.000000	-0.589453	-0.594603	-0.596203	-0.598453	-0.603503	-0.597753	-0.592403	-0.597753	-0.600653	-0.580652	-0.577552	-0.585152	-0.585002	-0.584952	-0.584852	-0.584802	-0.584802	-0.584802	-0.584852	-0.584752	-0.584752	-0.584652	-0.584752	-0.584702	-0.584702	-0.584801	-0.584801	-0.584801	-0.584801	-0.584801	-0.584801	-0.584851	-0.584851	-0.584751	-0.584751	-0.584801	-0.584851	-0.584901	-0.584801
112.000000	-0.619953	-0.619252	-0.630853	-0.629403	-0.634753	-0.628653	-0.623503	-0.628653	-0.631503	-0.612002	-0.616552	-0.616302	-0.616302	-0.616202	-0.616102	-0.616052	-0.616002	-0.616002	-0.616002	-0.616052	-0.615902	-0.615952	-0.615902	-0.616002	-0.615952	-0.615902	-0.615902	-0.616052	-0.616002	-0.616002	-0.616052	-0.616052	-0.616052	-0.616102	-0.615952	-0.616002	-0.616052	-0.616102	-0.616102
113.000000	-0.650503	-0.649753	-0.648852	-0.662453	-0.665153	-0.658703	-0.653653	-0.658753	-0.644552	-0.647202	-0.646852	-0.646802	-0.646602	-0.646602	-0.646502	-0.646452	-0.646402	-0.646352	-0.646352	-0.646402	-0.646352	-0.646252	-0.646352	-0.646302	-0.646402	-0.646352	-0.646302	-0.646302	-0.646452	-0.646402	-0.646402	-0.646452	-0.646452	-0.646452	-0.646502	-0.646352	-0.646402	-0.646402	-0.646452
114.000000	-0.680203	-0.679253	-0.678502	-0.691853	-0.694754	-0.688103	-0.683103	-0.688003	-0.673952	-0.676702	-0.676352	-0.676252	-0.676202	-0.676052	-0.676102	-0.676002	-0.675952	-0.675902	-0.675902	-0.675902	-0.675852	-0.675752	-0.675852	-0.675752	-0.675852	-0.675802	-0.675902	-0.675902	-0.675852	-0.675852	-0.675852	-0.675852	-0.675852	-0.675852	-0.675902	-0.675902	-0.675952	-0.675952	-0.676002
115.000000	-0.708903	-0.708053	-0.707153	-0.706452	-0.723354	-0.716353	-0.711453	-0.716203	-0.702552	-0.705302	-0.704902	-0.704802	-0.704702	-0.704702	-0.704552	-0.704602	-0.704502	-0.704502	-0.704452	-0.704452	-0.704402	-0.704452	-0.704352	-0.704452	-0.704352	-0.704452	-0.704402	-0.704352	-0.704502	-0.704452	-0.704452	-0.704452	-0.704452	-0.704452	-0.704502	-0.704502	-0.704502	-0.704552	-0.704602
116.000000	-0.736603	-0.735703	-0.734853	-0.734203	-0.756704	-0.743653	-0.738853	-0.743553	-0.730202	-0.732902	-0.732652	-0.732502	-0.732252	-0.732252	-0.732252	-0.732102	-0.732202	-0.732102	-0.732102	-0.732052	-0.732002	-0.732052	-0.731952	-0.732002	-0.732102	-0.732052	-0.731952	-0.732102	-0.732052	-0.732002	-0.732002	-0.732152	-0.732152	-0.732152	-0.732152	-0.732152	-0.732202	-0.732202	-0.732252
117.000000	-0.763303	-0.762453	-0.761453	-0.760803	-0.783404	-0.770053	-0.765303	-0.755152	-0.760102	-0.759452	-0.759202	-0.759002	-0.758902	-0.758852	-0.758852	-0.758702	-0.758752	-0.758702	-0.758652	-0.758652	-0.758552	-0.758602	-0.758652	-0.758702	-0.758602	-0.758702	-0.758652	-0.758602	-0.758702	-0.758652	-0.758652	-0.758602	-0.758752	-0.758752	-0.758752	-0.758752	-0.758802	-0.758802	-0.758852
118.000000	-0.788953	-0.788053	-0.787103	-0.786403	-0.808854	-0.795353	-0.790753	-0.780852	-0.785602	-0.785052	-0.784802	-0.784602	-0.784502	-0.784452	-0.784402	-0.784402	-0.784302	-0.784202	-0.784302	-0.784302	-0.784202	-0.784202	-0.784102	-0.784152	-0.784202	-0.784152	-0.784252	-0.784202	-0.784302	-0.784252	-0.784202	-0.784202	-0.784202	-0.784352	-0.784352	-0.784352	-0.784352	-0.784352	-0.784402
119.000000	-0.813453	-0.812603	-0.811653	-0.810903	-0.833454	-0.819503	-0.815103	-0.805302	-0.810052	-0.809502	-0.809202	-0.809152	-0.809052	-0.808952	-0.808902	-0.808752	-0.808802	-0.808702	-0.808802	-0.808752	-0.808652	-0.808702	-0.808702	-0.808602	-0.808652	-0.808752	-0.808652	-0.808752	-0.808702	-0.808652	-0.808802	-0.808752	-0.808752	-0.808702	-0.808702	-0.808702	-0.808752	-0.808752	-0.808752
120.000000	-0.836903	-0.836053	-0.835053	-0.834353	-0.856804	-0.842603	-0.838303	-0.828602	-0.833452	-0.832902	-0.832602	-0.832402	-0.832402	-0.832302	-0.832252	-0.832102	-0.832102	-0.832152	-0.832102	-0.832052	-0.831952	-0.831952	-0.832002	-0.832052	-0.832102	-0.832002	-0.832052	-0.832002	-0.832102	-0.832052	-0.832002	-0.832152	-0.832102	-0.832102	-0.832102	-0.832102	-0.832102	-0.832102	-0.832102
121.000000	-0.859154	-0.858353	-0.857253	-0.856453	-0.879004	-0.869754	-0.860353	-0.850702	-0.855703	-0.855152	-0.854852	-0.854602	-0.854602	-0.854502	-0.854452	-0.854402	-0.854302	-0.854352	-0.854252	-0.854202	-0.854252	-0.854252	-0.854252	-0.854152	-0.854202	-0.854252	-0.854202	-0.854252	-0.854202	-0.854302	-0.854252	-0.854252	-0.854352	-0.854352	-0.854352	-0.854352	-0.854352	-0.854352	-0.854352
122.000000	-0.880354	-0.879303	-0.878403	-0.877553	-0.886203	-0.890704	-0.881103	-0.871853	-0.876703	-0.876103	-0.875902	-0.875702	-0.875502	-0.875552	-0.875502	-0.875452	-0.875302	-0.875352	-0.875252	-0.875352	-0.875252	-0.875252	-0.875252	-0.875302	-0.875202	-0.875252	-0.875302	-0.875252	-0.875302	-0.875252	-0.875252	-0.875352	-0.875302	-0.875302	-0.875302	-0.875402	-0.875402	-0.875452	-0.875452
123.000000	-0.900254	-0.899203	-0.898103	-0.897353	-0.906203	-0.910204	-0.900853	-0.891503	-0.896653	-0.896053	-0.895703	-0.895453	-0.895452	-0.895302	-0.895252	-0.895202	-0.895202	-0.895102	-0.895152	-0.895102	-0.895002	-0.895002	-0.895002	-0.895002	-0.895052	-0.895102	-0.895002	-0.895102	-0.895002	-0.895102	-0.895052	-0.895202	-0.895152	-0.895152	-0.895102	-0.895102	-0.895252	-0.895252	-0.895252
124.000000	-0.918804	-0.917803	-0.916803	-0.916003	-0.925004	-0.928554	-0.919203	-0.910053	-0.915203	-0.914603	-0.914253	-0.914153	-0.913953	-0.913803	-0.913752	-0.913702	-0.913702	-0.913702	-0.913652	-0.913702	-0.913602	-0.913602	-0.913602	-0.913602	-0.913652	-0.913552	-0.913602	-0.913702	-0.913602	-0.913702	-0.913652	-0.913602	-0.913752	-0.913702	-0.913702	-0.913702	-0.913802	-0.913802	-0.913852
125.000000	-0.936004	-0.935154	-0.934053	-0.933203	-0.942504	-0.945804	-0.936253	-0.927353	-0.932453	-0.931853	-0.931503	-0.931403	-0.931203	-0.931203	-0.931153	-0.931103	-0.931052	-0.930952	-0.931002	-0.930902	-0.930802	-0.930952	-0.930952	-0.930952	-0.930852	-0.930902	-0.930952	-0.930852	-0.930952	-0.930902	-0.931002	-0.930952	-0.931052	-0.931052	-0.931002	-0.931002	-0.931002	-0.931002	-0.931152
126.000000	-0.952104	-0.951154	-0.950003	-0.949303	-0.958604	-0.961504	-0.952103	-0.943403	-0.948503	-0.947903	-0.947503	-0.947403	-0.947203	-0.947203	-0.947103	-0.947053	-0.947053	-0.946952	-0.947002	-0.946902	-0.946952	-0.946952	-0.946902	-0.946952	-0.946952	-0.946852	-0.946902	-0.947002	-0.946902	-0.947002	-0.946952	-0.947052	-0.947002	-0.947002	-0.946952	-0.947102	-0.947102	-0.947102	-0.947102
127.000000	-0.966754	-0.965754	-0.964753	-0.964003	-0.973554	-0.976104	-0.966653	-0.958003	-0.963253	-0.962653	-0.962303	-0.962003	-0.961953	-0.961803	-0.961753	-0.961703	-0.961653	-0.961703	-0.961703	-0.961652	-0.961552	-0.961502	-0.961502	-0.961552	-0.961552	-0.961602	-0.961652	-0.961552	-0.961652	-0.961602	-0.961702	-0.961652	-0.961752	-0.961702	-0.961702	-0.961702	-0.961802	-0.961802	-0.961802
128.000000	-0.980104	-0.979104	-0.978053	-0.977253	-0.986954	-0.989304	-0.979854	-0.971253	-0.976653	-0.975903	-0.975653	-0.975403	-0.975353	-0.975203	-0.975103	-0.975053	-0.975053	-0.975053	-0.974953	-0.975003	-0.974903	-0.974902	-0.974902	-0.974902	-0.974952	-0.974952	-0.975002	-0.974952	-0.975002	-0.974952	-0.975052	-0.975002	-0.975102	-0.975102	-0.975052	-0.975052	-0.975052	-0.975202	-0.975202
129.000000	-0.992054	-0.991154	-0.990103	-0.989303	-0.999104	-1.001154	-0.991704	-0.983103	-0.988653	-0.987903	-0.987703	-0.987403	-0.987353	-0.987203	-0.987153	-0.987053	-0.987053	-0.987053	-0.986953	-0.987053	-0.986953	-0.986903	-0.986903	-0.986902	-0.986952	-0.987002	-0.987052	-0.986952	-0.987002	-0.986952	-0.987052	-0.987002	-0.986952	-0.987102	-0.987052	-0.987052	-0.987052	-0.987202	-0.987202
130.000000	-1.002754	-1.001654	-1.000753	-0.999953	-1.009904	-1.011604	-1.002004	-1.001553	-0.999303	-0.998553	-0.998353	-0.998053	-0.997853	-0.997903	-0.997803	-0.997753	-0.997703	-0.997753	-0.997603	-0.997703	-0.997603	-0.997553	-0.997553	-0.997553	-0.997603	-0.997652	-0.997552	-0.997602	-0.997702	-0.997602	-0.997702	-0.997652	-0.997652	-0.997752	-0.997702	-0.997702	-0.997702	-0.997702	-0.997702
131.000000	-1.011854	-1.010954	-1.009853	-1.009053	-1.019254	-1.020754	-1.011104	-1.010853	-1.008603	-1.007853	-1.007503	-1.007353	-1.007153	-1.007053	-1.007103	-1.007053	-1.006853	-1.006903	-1.006903	-1.006853	-1.006753	-1.006903	-1.006903	-1.006903	-1.006753	-1.006803	-1.006853	-1.006902	-1.006852	-1.006952	-1.006902	-1.006852	-1.006952	-1.006902	-1.006902	-1.007002	-1.007002	-1.007002	-1.007002
132.000000	-1.019754	-1.018704	-1.017753	-1.016953	-1.027104	-1.028504	-1.018704	-1.018753	-1.016403	-1.015803	-1.015453	-1.015153	-1.015103	-1.015003	-1.014903	-1.014853	-1.014803	-1.014703	-1.014753	-1.014653	-1.014703	-1.014703	-1.014703	-1.014703	-1.014753	-1.014653	-1.014703	-1.014753	-1.014652	-1.014752	-1.014702	-1.014802	-1.014752	-1.014752	-1.014702	-1.014852	-1.014852	-1.014852	-1.014852
133.000000	-1.026054	-1.025204	-1.024153	-1.023353	-1.033704	-1.034754	-1.024954	-1.025303	-1.022953	-1.022253	-1.021853	-1.021603	-1.021553	-1.021453	-1.021353	-1.021303	-1.021303	-1.021153	-1.021203	-1.021153	-1.021053	-1.021203	-1.021203	-1.021203	-1.021053	-1.021103	-1.021153	-1.021103	-1.021153	-1.021253	-1.021202	-1.021152	-1.021252	-1.021252	-1.021202	-1.021202	-1.021202	-1.021352	-1.021352
134.000000	-1.031004	-1.030154	-1.029153	-1.028353	-1.038804	-1.039654	-1.017553	-1.030353	-1.028053	-1.027303	-1.026953	-1.026703	-1.026553	-1.026403	-1.026303	-1.026253	-1.026253	-1.026303	-1.026203	-1.026253	-1.026203	-1.026203	-1.026203	-1.026203	-1.026253	-1.026103	-1.026203	-1.026253	-1.026153	-1.026253	-1.026203	-1.026152	-1.026302	-1.026252	-1.026252	-1.026252	-1.026352	-1.026352	-1.026352
135.000000	-1.034554	-1.033754	-1.032753	-1.032003	-1.042354	-1.043204	-1.021103	-1.033953	-1.031603	-1.030903	-1.030553	-1.030303	-1.030153	-1.030053	-1.029953	-1.029903	-1.029903	-1.029953	-1.029853	-1.029753	-1.029853	-1.029853	-1.029853	-1.029853	-1.029753	-1.029803	-1.029853	-1.029803	-1.029853	-1.029803	-1.029903	-1.029852	-1.029852	-1.029952	-1.029952	-1.029902	-1.029902	-1.029902	-1.029902
136.000000	-1.036754	-1.035854	-1.034903	-1.034153	-1.044704	-1.045304	-1.023153	-1.036153	-1.033853	-1.033153	-1.032853	-1.032603	-1.032453	-1.032303	-1.032253	-1.032203	-1.032053	-1.032103	-1.032003	-1.032103	-1.032053	-1.032053	-1.032053	-1.032053	-1.032103	-1.032003	-1.032053	-1.032003	-1.032053	-1.032003	-1.032103	-1.032052	-1.032052	-1.032152	-1.032152	-1.032152	-1.032152	-1.032152	-1.032152
137.000000	-1.037354	-1.036554	-1.035653	-1.034953	-1.045554	-1.046004	-1.023853	-1.037053	-1.034753	-1.033903	-1.033603	-1.033403	-1.033203	-1.033103	-1.033053	-1.033053	-1.032903	-1.032953	-1.032853	-1.032953	-1.032903	-1.032903	-1.032903	-1.032753	-1.032803	-1.032853	-1.032753	-1.032853	-1.032803	-1.032903	-1.032853	-1.032952	-1.032902	-1.032902	-1.032902	-1.032902	-1.032902	-1.032902	-1.032902
138.000000	-1.036754	-1.035904	-1.035053	-1.034403	-1.044854	-1.045254	-1.023103	-1.036403	-1.034153	-1.033353	-1.033053	-1.032803	-1.032703	-1.032603	-1.032353	-1.032353	-1.032353	-1.032253	-1.032353	-1.032303	-1.032253	-1.032253	-1.032253	-1.032303	-1.032203	-1.032253	-1.032153	-1.032253	-1.032203	-1.032303	-1.032252	-1.032202	-1.032352	-1.032302	-1.032302	-1.032302	-1.032302	-1.032302	-1.032302
139.000000	-1.034654	-1.033854	-1.032903	-1.032303	-1.042804	-1.043154	-1.020953	-1.034453	-1.032203	-1.031403	-1.031003	-1.030803	-1.030653	-1.030553	-1.030503	-1.030353	-1.030403	-1.030303	-1.030203	-1.030303	-1.030303	-1.030303	-1.030153	-1.030203	-1.030253	-1.030153	-1.030203	-1.030153	-1.030253	-1.030202	-1.030302	-1.030302	-1.030252	-1.030252	-1.030252	-1.030252	-1.030252	-1.030252	-1.030252
140.000000	-1.031154	-1.030304	-1.029403	-1.028853	-1.039354	-1.039704	-1.017303	-1.031003	-1.028753	-1.028003	-1.027553	-1.027403	-1.027253	-1.027203	-1.027003	-1.027003	-1.026903	-1.026953	-1.026903	-1.026853	-1.026853	-1.026853	-1.026853	-1.026753	-1.026803	-1.026853	-1.026803	-1.026903	-1.026852	-1.026802	-1.026902	-1.026902	-1.026852	-1.026852	-1.026852	-1.026852	-1.026852	-1.026852	-1.026852
141.000000	-1.026104	-1.025504	-1.024553	-1.024053	-1.034404	-1.034804	-1.012353	-1.026303	-1.023953	-1.023203	-1.022803	-1.022653	-1.022403	-1.022303	-1.022303	-1.022153	-1.022203	-1.022103	-1.022053	-1.022053	-1.022053	-1.022053	-1.022103	-1.021953	-1.022053	-1.022103	-1.022052	-1.021952	-1.022052	-1.022052	-1.022002	-1.022152	-1.022102	-1.022102	-1.022102	-1.022102	-1.022102	-1.022152	-1.022152
142.000000	-1.019854	-1.019204	-1.018353	-1.017753	-1.028254	-1.028654	-1.005853	-1.020003	-1.017803	-1.017103	-1.016703	-1.016403	-1.016303	-1.016253	-1.016103	-1.016103	-1.016003	-1.015953	-1.015903	-1.015853	-1.015903	-1.015903	-1.015953	-1.015852	-1.015902	-1.015852	-1.015902	-1.015852	-1.015802	-1.015952	-1.015902	-1.015902	-1.015902	-1.015902	-1.015902	-1.015902	-1.015902	-1.015902	-1.015952
143.000000	-1.012354	-1.011503	-1.010753	-1.010203	-1.020704	-1.021054	-0.998153	-1.012453	-1.010303	-1.009603	-1.009253	-1.008953	-1.008853	-1.008703	-1.008703	-1.008553	-1.008503	-1.008403	-1.008403	-1.008353	-1.008403	-1.008402	-1.008452	-1.008352	-1.008452	-1.008352	-1.008452	-1.008402	-1.008352	-1.008352	-1.008452	-1.008452	-1.008452	-1.008452	-1.008452	-1.008452	-1.008452	-1.008502	-1.008352
144.000000	-1.003304	-1.002553	-1.001903	-1.001303	-1.011754	-1.012204	-0.988953	-1.003553	-1.001453	-1.000753	-1.000403	-1.000153	-0.999903	-0.999903	-0.999753	-0.999803	-0.999703	-0.999653	-0.999653	-0.999652	-0.999552	-0.999552	-0.999602	-0.999502	-0.999602	-0.999552	-0.999652	-0.999602	-0.999552	-0.999552	-0.999502	-0.999502	-0.999502	-0.999652	-0.999502	-0.999502	-0.999552	-0.999552	-0.999602
145.000000	-0.992954	-0.992403	-0.991653	-0.991153	-1.001404	-0.990603	-0.978552	-0.993453	-0.991303	-0.990653	-0.990203	-0.989953	-0.989903	-0.989753	-0.989603	-0.989653	-0.989603	-0.989552	-0.989552	-0.989402	-0.989452	-0.989502	-0.989402	-0.989452	-0.989402	-0.989502	-0.989452	-0.989402	-0.989352	-0.989352	-0.989502	-0.989502	-0.989502	-0.989502	-0.989502	-0.989352	-0.989402	-0.989402	-0.989452
146.000000	-0.981404	-0.980803	-0.980203	-0.979603	-0.989854	-0.979103	-0.966602	-0.981753	-0.979853	-0.979203	-0.978753	-0.978503	-0.978453	-0.978353	-0.978202	-0.978152	-0.978102	-0.978052	-0.978052	-0.978052	-0.977952	-0.978002	-0.978102	-0.978002	-0.977952	-0.978052	-0.978002	-0.977952	-0.977952	-0.977952	-0.978102	-0.978102	-0.978102	-0.977952	-0.977952	-0.978002	-0.978002	-0.978052	-0.978102
147.000000	-0.968603	-0.968003	-0.967303	-0.966953	-0.977003	-0.966553	-0.953552	-0.969003	-0.967103	-0.966503	-0.966203	-0.965803	-0.965802	-0.965702	-0.965602	-0.965502	-0.965452	-0.965452	-0.965452	-0.965302	-0.965402	-0.965302	-0.965402	-0.965302	-0.965402	-0.965352	-0.965352	-0.965302	-0.965302	-0.965302	-0.965252	-0.965302	-0.965302	-0.965302	-0.965352	-0.965352	-0.965402	-0.965402	-0.965302
148.000000	-0.954453	-0.954053	-0.953303	-0.952903	-0.962853	-0.952553	-0.939152	-0.954853	-0.953103	-0.952503	-0.952252	-0.952052	-0.951902	-0.951752	-0.951702	-0.951652	-0.951602	-0.951602	-0.951452	-0.951452	-0.951602	-0.951502	-0.951402	-0.951502	-0.951452	-0.951402	-0.951402	-0.951502	-0.951502	-0.951502	-0.951502	-0.951502	-0.951552	-0.951402	-0.951452	-0.951452	-0.951502	-0.951552	-0.951452
149.000000	-0.939253	-0.938803	-0.938203	-0.937753	-0.947503	-0.937453	-0.923452	-0.939553	-0.938003	-0.937402	-0.937152	-0.936802	-0.936702	-0.936602	-0.936502	-0.936452	-0.936452	-0.936452	-0.936452	-0.936352	-0.936502	-0.936402	-0.936502	-0.936452	-0.936402	-0.936352	-0.936502	-0.936452	-0.936452	-0.936452	-0.936452	-0.936502	-0.936352	-0.936352	-0.936402	-0.936452	-0.936502	-0.936352	-0.936402
150.000000	-0.922853	-0.922403	-0.921803	-0.921403	-0.930953	-0.921153	-0.906502	-0.923003	-0.921602	-0.921152	-0.920802	-0.920602	-0.920502	-0.920402	-0.920352	-0.920302	-0.920302	-0.920302	-0.920202	-0.920252	-0.920202	-0.920302	-0.920252	-0.920202	-0.920152	-0.920302	-0.920252	-0.920252	-0.920252	-0.920252	-0.920252	-0.920302	-0.920152	-0.920202	-0.920252	-0.920252	-0.920302	-0.920202	-0.920252
151.000000	-0.905453	-0.904853	-0.904353	-0.903953	-0.913403	-0.903652	-0.888402	-0.905152	-0.904052	-0.903652	-0.903402	-0.903252	-0.903152	-0.903052	-0.903002	-0.903002	-0.903002	-0.903002	-0.902902	-0.902952	-0.902952	-0.903052	-0.903002	-0.902952	-0.902902	-0.903052	-0.903052	-0.903052	-0.903052	-0.903052	-0.903052	-0.902952	-0.902952	-0.903002	-0.903052	-0.903052	-0.902952	-0.903002	-0.903052
152.000000	-0.886853	-0.886453	-0.885753	-0.885453	-0.894703	-0.885202	-0.869202	-0.886302	-0.885452	-0.885052	-0.885002	-0.884852	-0.884752	-0.884702	-0.884652	-0.884652	-0.884652	-0.884652	-0.884552	-0.884602	-0.884652	-0.884752	-0.884702	-0.884652	-0.884602	-0.884752	-0.884752	-0.884752	-0.884752	-0.884752	-0.884802	-0.884652	-0.884702	-0.884752	-0.884752	-0.884802	-0.884702	-0.884752	-0.884852
153.000000	-0.867403	-0.866853	-0.866303	-0.865803	-0.874853	-0.865602	-0.848802	-0.866252	-0.865852	-0.865602	-0.865402	-0.865402	-0.865302	-0.865252	-0.865352	-0.865352	-0.865202	-0.865252	-0.865302	-0.865202	-0.865402	-0.865352	-0.865452	-0.865402	-0.865402	-0.865402	-0.865552	-0.865552	-0.865552	-0.865552	-0.865602	-0.865452	-0.865502	-0.865552	-0.865552	-0.865602	-0.865502	-0.865602	-0.865652
154.000000	-0.846853	-0.846303	-0.845753	-0.845252	-0.854053	-0.845002	-0.827302	-0.845152	-0.845002	-0.844902	-0.845002	-0.845002	-0.844902	-0.845002	-0.845002	-0.845002	-0.845002	-0.845052	-0.845102	-0.845152	-0.845202	-0.845302	-0.845252	-0.845202	-0.845352	-0.845352	-0.845352	-0.845352	-0.845352	-0.845352	-0.845402	-0.845452	-0.845452	-0.845502	-0.845552	-0.845602	-0.845652	-0.845552	-0.845602
155.000000	-0.825553	-0.825003	-0.824302	-0.823902	-0.832353	-0.823352	-0.804702	-0.823002	-0.823252	-0.823452	-0.823502	-0.823652	-0.823702	-0.823802	-0.823752	-0.823902	-0.823952	-0.824002	-0.824052	-0.824102	-0.824302	-0.824252	-0.824352	-0.824302	-0.824452	-0.824452	-0.824452	-0.824602	-0.824602	-0.824602	-0.824652	-0.824652	-0.824702	-0.824752	-0.824752	-0.824802	-0.824852	-0.824902	-0.824952
156.000000	-0.803403	-0.802903	-0.802152	-0.801602	-0.809753	-0.801002	-0.781252	-0.799952	-0.800702	-0.801152	-0.801352	-0.801452	-0.801652	-0.801752	-0.801852	-0.802002	-0.802152	-0.802202	-0.802252	-0.802452	-0.802502	-0.802602	-0.802702	-0.802802	-0.802752	-0.802902	-0.802902	-0.803052	-0.803052	-0.803052	-0.803252	-0.803252	-0.803302	-0.803302	-0.803352	-0.803552	-0.803602	-0.803602	-0.803652
157.000000	-0.780603	-0.779952	-0.779202	-0.778502	-0.786353	-0.777552	-0.756702	-0.775752	-0.777152	-0.777852	-0.778302	-0.778552	-0.778852	-0.779052	-0.779302	-0.779402	-0.779552	-0.779752	-0.779902	-0.780102	-0.780302	-0.780402	-0.780502	-0.780602	-0.780702	-0.780852	-0.780952	-0.781102	-0.781102	-0.781252	-0.781252	-0.781402	-0.781452	-0.781602	-0.781602	-0.781652	-0.781852	-0.781852	-0.781902
158.000000	-0.757403	-0.756402	-0.755552	-0.754702	-0.762253	-0.753502	-0.731202	-0.750702	-0.752752	-0.753752	-0.754452	-0.754952	-0.755352	-0.755852	-0.756052	-0.756452	-0.756702	-0.756852	-0.757152	-0.757352	-0.757702	-0.757752	-0.757952	-0.758202	-0.758302	-0.758402	-0.758502	-0.758802	-0.758902	-0.759052	-0.759202	-0.759302	-0.759452	-0.759452	-0.759602	-0.759802	-0.759952	-0.760102	-0.760252
159.000000	-0.733602	-0.732452	-0.731452	-0.730352	-0.737353	-0.728502	-0.704801	-0.724852	-0.727702	-0.729202	-0.730102	-0.730952	-0.731452	-0.732052	-0.732502	-0.733002	-0.733352	-0.733602	-0.734052	-0.734352	-0.734802	-0.734952	-0.735302	-0.735502	-0.735702	-0.735952	-0.736152	-0.736402	-0.736652	-0.736752	-0.737002	-0.737252	-0.737402	-0.737652	-0.737752	-0.738052	-0.738302	-0.738452	-0.738702
160.000000	-0.709452	-0.708152	-0.706852	-0.705552	-0.712002	-0.703002	-0.677551	-0.697902	-0.701752	-0.703802	-0.705302	-0.706352	-0.707202	-0.708002	-0.708652	-0.709402	-0.709852	-0.710352	-0.710852	-0.711402	-0.711952	-0.712352	-0.712652	-0.713102	-0.713402	-0.713702	-0.714052	-0.714402	-0.714702	-0.715052	-0.715452	-0.715652	-0.716002	-0.716352	-0.716552	-0.716952	-0.717302	-0.717502	-0.717852
161.000000	-0.685352	-0.683602	-0.681902	-0.680252	-0.686102	-0.676802	-0.649651	-0.670202	-0.675202	-0.678102	-0.680002	-0.681502	-0.682802	-0.683902	-0.684902	-0.685802	-0.686602	-0.687302	-0.688002	-0.688752	-0.689502	-0.690002	-0.690652	-0.691152	-0.691702	-0.692202	-0.692752	-0.693302	-0.693702	-0.694302	-0.694702	-0.695152	-0.695702	-0.696102	-0.696702	-0.697101	-0.697651	-0.698101	-0.698601
162.000000	-0.661452	-0.659252	-0.657002	-0.654702	-0.659902	-0.649952	-0.620851	-0.641701	-0.648102	-0.651852	-0.654402	-0.656502	-0.658352	-0.660002	-0.661301	-0.662601	-0.663701	-0.664851	-0.665851	-0.666901	-0.668001	-0.668751	-0.669751	-0.670551	-0.671251	-0.672101	-0.672801	-0.673701	-0.674401	-0.675151	-0.675851	-0.676601	-0.677351	-0.678201	-0.678951	-0.679651	-0.680501	-0.681151	-0.681951
163.000000	-0.638152	-0.635102	-0.632202	-0.629202	-0.633352	-0.622652	-0.591351	-0.612551	-0.620451	-0.625301	-0.628751	-0.631751	-0.634201	-0.636451	-0.638501	-0.640351	-0.641901	-0.643551	-0.645101	-0.646501	-0.648001	-0.649301	-0.650651	-0.651851	-0.653101	-0.654351	-0.655601	-0.656701	-0.657801	-0.659051	-0.660151	-0.661401	-0.662501	-0.663701	-0.664951	-0.666151	-0.667301	-0.668601	-0.669851
164.000000	-0.615802	-0.611802	-0.607802	-0.603802	-0.606752	-0.595102	-0.561301	-0.582451	-0.592251	-0.598551	-0.603301	-0.607301	-0.610801	-0.613801	-0.616651	-0.619301	-0.621851	-0.624201	-0.626401	-0.628551	-0.630701	-0.632751	-0.634651	-0.636551	-0.638501	-0.640301	-0.642101	-0.643901	-0.645851	-0.647651	-0.649401	-0.651351	-0.653101	-0.654951	-0.656951	-0.658901	-0.660801	-0.662951	-0.665001
165.000000	-0.595102	-0.589502	-0.584302	-0.578852	-0.580252	-0.566952	-0.530601	-0.551801	-0.563651	-0.571701	-0.578101	-0.583501	-0.588401	-0.592751	-0.596801	-0.600651	-0.604301	-0.607701	-0.611051	-0.614101	-0.617401	-0.620551	-0.623401	-0.626451	-0.629301	-0.632201	-0.634951	-0.637801	-0.640701	-0.643551	-0.646501	-0.649451	-0.652351	-0.655351	-0.658451	-0.661601	-0.664801	-0.668101	-0.671551
166.000000	-0.576702	-0.569002	-0.561902	-0.554602	-0.553952	-0.538802	-0.499301	-0.520451	-0.534551	-0.544951	-0.553451	-0.561001	-0.567851	-0.573951	-0.579801	-0.585351	-0.590651	-0.595751	-0.600651	-0.605401	-0.610301	-0.614801	-0.619401	-0.623951	-0.628351	-0.632801	-0.637351	-0.641701	-0.646201	-0.650801	-0.655351	-0.660001	-0.664701	-0.669451	-0.674451	-0.679451	-0.684551	-0.689951	-0.695451
167.000000	-0.561702	-0.551252	-0.541302	-0.531452	-0.528152	-0.510152	-0.467651	-0.488351	-0.505151	-0.518401	-0.529851	-0.540201	-0.549701	-0.558551	-0.566951	-0.574951	-0.582751	-0.590151	-0.597501	-0.604751	-0.612001	-0.619001	-0.625901	-0.632801	-0.639501	-0.646351	-0.653201	-0.660101	-0.667001	-0.673951	-0.681151	-0.688251	-0.695501	-0.702951	-0.710551	-0.718250	-0.726150	-0.734300	-0.742700
168.000000	-0.551503	-0.536952	-0.523252	-0.509802	-0.502902	-0.481652	-0.435501	-0.455551	-0.475451	-0.492451	-0.507751	-0.521851	-0.535001	-0.547651	-0.559751	-0.571451	-0.582651	-0.593701	-0.604551	-0.615101	-0.625751	-0.636101	-0.646401	-0.656551	-0.666501	-0.676651	-0.686600	-0.696650	-0.706700	-0.716800	-0.727000	-0.737250	-0.747550	-0.758000	-0.768500	-0.779250	-0.790100	-0.801200	-0.812600
169.000000	-0.547403	-0.527452	-0.508702	-0.490202	-0.478752	-0.452902	-0.402951	-0.422100	-0.445500	-0.467250	-0.487600	-0.506900	-0.525250	-0.543050	-0.560250	-0.576900	-0.592900	-0.608650	-0.623950	-0.639000	-0.653850	-0.668200	-0.682250	-0.696150	-0.709800	-0.723100	-0.736300	-0.749300	-0.762050	-0.774700	-0.787250	-0.799700	-0.811900	-0.824100	-0.836000	-0.847900	-0.859850	-0.871600	-0.883300
170.000000	-0.551053	-0.523903	-0.498302	-0.473152	-0.455652	-0.424102	-0.370100	-0.387800	-0.415350	-0.443050	-0.470000	-0.496300	-0.521800	-0.546300	-0.569850	-0.592500	-0.614300	-0.635150	-0.655250	-0.674350	-0.692950	-0.710400	-0.727150	-0.743150	-0.758450	-0.773150	-0.787100	-0.800400	-0.813250	-0.825400	-0.836950	-0.848100	-0.858600	-0.868700	-0.878450	-0.887450	-0.896250	-0.904600	-0.912450
171.000000	-0.562054	-0.526853	-0.492653	-0.459202	-0.433952	-0.395302	-0.337100	-0.353000	-0.385100	-0.420100	-0.455850	-0.491250	-0.525100	-0.557450	-0.587750	-0.615950	-0.642000	-0.666200	-0.688250	-0.708551	-0.727351	-0.744301	-0.759601	-0.773651	-0.786351	-0.797901	-0.808551	-0.818051	-0.826601	-0.834401	-0.841501	-0.847951	-0.853751	-0.858851	-0.863501	-0.867701	-0.871401	-0.874651	-0.877651
172.000000	-0.577405	-0.534554	-0.491353	-0.448052	-0.413602	-0.366302	-0.303900	-0.317550	-0.354750	-0.399250	-0.445850	-0.491300	-0.533900	-0.572150	-0.606200	-0.635801	-0.661401	-0.683351	-0.702101	-0.718001	-0.731901	-0.743301	-0.753001	-0.761151	-0.768051	-0.773901	-0.778701	-0.782901	-0.786301	-0.789151	-0.791451	-0.793351	-0.794951	-0.796201	-0.797101	-0.797801	-0.798351	-0.798751	-0.799001
173.000000	-0.587906	-0.541505	-0.491653	-0.438803	-0.394103	-0.337052	-0.270600	-0.281649	-0.324549	-0.380549	-0.439150	-0.493600	-0.540200	-0.578451	-0.609051	-0.632951	-0.651401	-0.665551	-0.676401	-0.684901	-0.691401	-0.696201	-0.699751	-0.702401	-0.704351	-0.705801	-0.706651	-0.707351	-0.707701	-0.708001	-0.708051	-0.707851	-0.707751	-0.707501	-0.707301	-0.707001	-0.706701	-0.706451	-0.706201
174.000000	-0.579306	-0.537255	-0.486754	-0.428303	-0.374353	-0.307052	-0.237250	-0.245299	-0.294949	-0.363799	-0.432250	-0.488600	-0.530451	-0.559801	-0.579901	-0.593201	-0.602151	-0.607951	-0.611751	-0.613951	-0.615601	-0.616301	-0.616601	-0.616551	-0.616451	-0.616151	-0.615751	-0.615401	-0.615101	-0.614701	-0.614351	-0.614001	-0.613701	-0.613401	-0.613151	-0.612901	-0.612551	-0.612401	-0.612101
175.000000	-0.539006	-0.508505	-0.466654	-0.410653	-0.351853	-0.275902	-0.204100	-0.209099	-0.266299	-0.346600	-0.416200	-0.463301	-0.491651	-0.507651	-0.516351	-0.521001	-0.523101	-0.523951	-0.524301	-0.524001	-0.523901	-0.523351	-0.522851	-0.522451	-0.521901	-0.521451	-0.521201	-0.520851	-0.520501	-0.520251	-0.519801	-0.519551	-0.519351	-0.519151	-0.518851	-0.518701	-0.518451	-0.518301	-0.518101
176.000000	-0.465855	-0.448805	-0.421554	-0.377653	-0.322603	-0.242352	-0.171150	-0.173499	-0.237949	-0.322250	-0.380301	-0.409951	-0.423251	-0.428751	-0.430551	-0.430851	-0.430451	-0.429951	-0.429401	-0.428901	-0.428701	-0.428151	-0.427701	-0.427301	-0.426951	-0.426651	-0.426351	-0.426151	-0.425901	-0.425601	-0.425451	-0.425151	-0.425001	-0.424751	-0.424551	-0.424501	-0.424301	-0.424101	-0.423951
177.000000	-0.370154	-0.362754	-0.349153	-0.322603	-0.281103	-0.205202	-0.138500	-0.139149	-0.207299	-0.282150	-0.319151	-0.332151	-0.335751	-0.336451	-0.336001	-0.335351	-0.334801	-0.334251	-0.333751	-0.333501	-0.333351	-0.333001	-0.332751	-0.332351	-0.332151	-0.331801	-0.331701	-0.331401	-0.331301	-0.331101	-0.330901	-0.330701	-0.330701	-0.330551	-0.330401	-0.330251	-0.330151	-0.330051	-0.329950
178.000000	-0.264053	-0.261253	-0.256353	-0.244552	-0.221952	-0.162151	-0.106300	-0.106599	-0.169050	-0.220801	-0.237101	-0.240401	-0.240551	-0.240051	-0.239651	-0.239201	-0.238801	-0.238551	-0.238301	-0.237951	-0.238001	-0.237701	-0.237601	-0.237351	-0.237151	-0.237001	-0.237001	-0.236851	-0.236701	-0.236601	-0.236500	-0.236450	-0.236200	-0.236150	-0.236100	-0.236050	-0.236000	-0.235850	-0.235800
179.000000	-0.155252	-0.154252	-0.152851	-0.149501	-0.142751	-0.110251	-0.074900	-0.075950	-0.116900	-0.139651	-0.143751	-0.144001	-0.143701	-0.143501	-0.143201	-0.143051	-0.142851	-0.142800	-0.142650	-0.142550	-0.142650	-0.142550	-0.142450	-0.142400	-0.142350	-0.142150	-0.142150	-0.142150	-0.142100	-0.142000	-0.142000	-0.142000	-0.141850	-0.141900	-0.141800	-0.141800	-0.141700	-0.141750	-0.141650
180.000000	-0.046200	-0.046100	-0.046100	-0.046000	-0.046400	-0.046050	-0.044200	-0.046300	-0.046500	-0.046550	-0.046600	-0.046650	-0.046700	-0.046750	-0.046850	-0.046950	-0.047050	-0.046950	-0.047050	-0.047000	-0.047300	-0.047400	-0.047350	-0.047450	-0.047400	-0.047350	-0.047450	-0.047400	-0.047500	-0.047500	-0.047450	-0.047550	-0.047550	-0.047500	-0.047650	-0.047600	-0.047600	-0.047700	-0.047700
